# Title: Diode Laser Frequency Scan, Stark Map in 6.6 V/cm.
# Note: Diode Laser Frequency Scan, No MW or Modulation, 40 V Top to Bot. NO WAVELENGTH DATA, JUST APPLIED VOLTAGE
# Type:	Frequency
# Hittite Freq:	18509.7 MHz
# Hittite: Power	14 dBm
# Laser Freq:	NaN
# Target:	Full Manifold in 40 V
# Laser Mod:	NaN
# Laser Mod Attn:	NaN
# MW Attn:	NaN
# Delay:	1000 ns
# MW Off:	IR + 100 ns
# Top w/o Static:	-0.0022 V
# Static:	+40 V
# Static Off:	NaN
i	f	n	nb	s	sb
0.000	0.000	1.000	0.000	0.008	0.008
1.000	-0.001	1.000	0.000	-0.001	0.008
2.000	-0.002	1.000	0.000	0.006	0.008
3.000	-0.003	1.000	0.000	0.009	0.008
4.000	-0.004	1.000	0.000	0.016	0.008
5.000	-0.005	1.000	0.000	0.010	0.008
6.000	-0.006	1.000	0.000	0.009	0.008
7.000	-0.007	1.000	0.000	0.001	0.008
8.000	-0.008	1.000	0.000	0.035	0.008
9.000	-0.009	1.000	0.000	0.033	0.008
10.000	-0.010	1.000	0.000	0.013	0.008
11.000	-0.011	1.000	0.000	0.008	0.008
12.000	-0.012	1.000	0.000	0.029	0.008
13.000	-0.013	1.000	0.000	-0.002	0.008
14.000	-0.014	1.000	0.000	0.021	0.008
15.000	-0.015	1.000	0.000	-0.008	0.008
16.000	-0.016	1.000	0.000	0.011	0.008
17.000	-0.017	1.000	0.000	-0.014	0.008
18.000	-0.018	1.000	0.000	0.017	0.008
19.000	-0.019	1.000	0.000	-0.009	0.008
20.000	-0.020	1.000	0.000	0.007	0.008
21.000	-0.021	1.000	0.000	0.017	0.008
22.000	-0.022	1.000	0.000	-0.010	0.008
23.000	-0.023	1.000	0.000	-0.005	0.008
24.000	-0.024	1.000	0.000	-0.001	0.008
25.000	-0.025	1.000	0.000	-0.001	0.008
26.000	-0.026	1.000	0.000	0.009	0.008
27.000	-0.027	1.000	0.000	0.026	0.008
28.000	-0.028	1.000	0.000	0.025	0.008
29.000	-0.029	1.000	0.000	0.000	0.008
30.000	-0.030	1.000	0.000	0.028	0.008
31.000	-0.031	1.000	0.000	-0.012	0.008
32.000	-0.032	1.000	0.000	0.008	0.008
33.000	-0.033	1.000	0.000	-0.022	0.008
34.000	-0.034	1.000	0.000	0.006	0.008
35.000	-0.035	1.000	0.000	-0.011	0.008
36.000	-0.036	1.000	0.000	-0.009	0.008
37.000	-0.037	1.000	0.000	0.003	0.008
38.000	-0.038	1.000	0.000	-0.003	0.008
39.000	-0.039	1.000	0.000	0.001	0.008
40.000	-0.040	1.000	0.000	-0.004	0.008
41.000	-0.041	1.000	0.000	0.001	0.008
42.000	-0.042	1.000	0.000	0.024	0.008
43.000	-0.043	1.000	0.000	0.023	0.008
44.000	-0.044	1.000	0.000	0.016	0.008
45.000	-0.045	1.000	0.000	0.004	0.008
46.000	-0.046	1.000	0.000	0.016	0.008
47.000	-0.047	1.000	0.000	0.016	0.008
48.000	-0.048	1.000	0.000	0.013	0.008
49.000	-0.049	1.000	0.000	-0.009	0.008
50.000	-0.050	1.000	0.000	0.003	0.008
51.000	-0.051	1.000	0.000	0.014	0.008
52.000	-0.052	1.000	0.000	0.011	0.008
53.000	-0.053	1.000	0.000	0.012	0.008
54.000	-0.054	1.000	0.000	0.014	0.008
55.000	-0.055	1.000	0.000	0.022	0.008
56.000	-0.056	1.000	0.000	0.024	0.008
57.000	-0.057	1.000	0.000	0.025	0.008
58.000	-0.058	1.000	0.000	-0.001	0.008
59.000	-0.059	1.000	0.000	0.020	0.008
60.000	-0.060	1.000	0.000	0.026	0.008
61.000	-0.061	1.000	0.000	-0.015	0.008
62.000	-0.062	1.000	0.000	0.004	0.008
63.000	-0.063	1.000	0.000	0.018	0.008
64.000	-0.064	1.000	0.000	-0.008	0.008
65.000	-0.065	1.000	0.000	-0.000	0.008
66.000	-0.066	1.000	0.000	0.011	0.008
67.000	-0.067	1.000	0.000	0.004	0.008
68.000	-0.068	1.000	0.000	0.021	0.008
69.000	-0.069	1.000	0.000	0.026	0.008
70.000	-0.070	1.000	0.000	0.001	0.008
71.000	-0.071	1.000	0.000	0.018	0.008
72.000	-0.072	1.000	0.000	-0.004	0.008
73.000	-0.073	1.000	0.000	0.007	0.008
74.000	-0.074	1.000	0.000	0.004	0.008
75.000	-0.075	1.000	0.000	0.024	0.008
76.000	-0.076	1.000	0.000	0.017	0.008
77.000	-0.077	1.000	0.000	-0.006	0.008
78.000	-0.078	1.000	0.000	0.004	0.008
79.000	-0.079	1.000	0.000	-0.002	0.008
80.000	-0.080	1.000	0.000	-0.002	0.008
81.000	-0.081	1.000	0.000	0.007	0.008
82.000	-0.082	1.000	0.000	0.005	0.008
83.000	-0.083	1.000	0.000	0.002	0.008
84.000	-0.084	1.000	0.000	0.016	0.008
85.000	-0.085	1.000	0.000	-0.015	0.008
86.000	-0.086	1.000	0.000	0.021	0.008
87.000	-0.087	1.000	0.000	-0.001	0.008
88.000	-0.088	1.000	0.000	0.014	0.008
89.000	-0.089	1.000	0.000	-0.030	0.008
90.000	-0.090	1.000	0.000	-0.006	0.008
91.000	-0.091	1.000	0.000	0.022	0.008
92.000	-0.092	1.000	0.000	-0.002	0.008
93.000	-0.093	1.000	0.000	-0.013	0.008
94.000	-0.094	1.000	0.000	-0.024	0.008
95.000	-0.095	1.000	0.000	0.010	0.008
96.000	-0.096	1.000	0.000	0.012	0.008
97.000	-0.097	1.000	0.000	0.011	0.008
98.000	-0.098	1.000	0.000	0.025	0.008
99.000	-0.099	1.000	0.000	-0.003	0.008
100.000	-0.100	1.000	0.000	0.001	0.008
101.000	-0.101	1.000	0.000	0.018	0.008
102.000	-0.102	1.000	0.000	0.029	0.008
103.000	-0.103	1.000	0.000	-0.018	0.008
104.000	-0.104	1.000	0.000	-0.001	0.008
105.000	-0.105	1.000	0.000	0.011	0.008
106.000	-0.106	1.000	0.000	0.005	0.008
107.000	-0.107	1.000	0.000	0.009	0.008
108.000	-0.108	1.000	0.000	-0.005	0.008
109.000	-0.109	1.000	0.000	-0.005	0.008
110.000	-0.110	1.000	0.000	0.006	0.008
111.000	-0.111	1.000	0.000	0.001	0.008
112.000	-0.112	1.000	0.000	-0.002	0.008
113.000	-0.113	1.000	0.000	0.014	0.008
114.000	-0.114	1.000	0.000	0.011	0.008
115.000	-0.115	1.000	0.000	0.013	0.008
116.000	-0.116	1.000	0.000	-0.005	0.008
117.000	-0.117	1.000	0.000	-0.001	0.008
118.000	-0.118	1.000	0.000	-0.009	0.008
119.000	-0.119	1.000	0.000	-0.001	0.008
120.000	-0.120	1.000	0.000	0.030	0.008
121.000	-0.121	1.000	0.000	0.016	0.008
122.000	-0.122	1.000	0.000	0.029	0.008
123.000	-0.123	1.000	0.000	-0.011	0.008
124.000	-0.124	1.000	0.000	-0.000	0.008
125.000	-0.125	1.000	0.000	0.011	0.008
126.000	-0.126	1.000	0.000	0.027	0.008
127.000	-0.127	1.000	0.000	-0.003	0.008
128.000	-0.128	1.000	0.000	0.017	0.008
129.000	-0.129	1.000	0.000	0.012	0.008
130.000	-0.130	1.000	0.000	-0.042	0.008
131.000	-0.131	1.000	0.000	0.030	0.008
132.000	-0.132	1.000	0.000	-0.006	0.008
133.000	-0.133	1.000	0.000	0.019	0.008
134.000	-0.134	1.000	0.000	0.023	0.008
135.000	-0.135	1.000	0.000	0.002	0.008
136.000	-0.136	1.000	0.000	0.011	0.008
137.000	-0.137	1.000	0.000	0.014	0.008
138.000	-0.138	1.000	0.000	0.018	0.008
139.000	-0.139	1.000	0.000	0.011	0.008
140.000	-0.140	1.000	0.000	0.013	0.008
141.000	-0.141	1.000	0.000	-0.017	0.008
142.000	-0.142	1.000	0.000	0.007	0.008
143.000	-0.143	1.000	0.000	0.011	0.008
144.000	-0.144	1.000	0.000	0.003	0.008
145.000	-0.145	1.000	0.000	0.021	0.008
146.000	-0.146	1.000	0.000	0.010	0.008
147.000	-0.147	1.000	0.000	-0.006	0.008
148.000	-0.148	1.000	0.000	0.024	0.008
149.000	-0.149	1.000	0.000	0.038	0.008
150.000	-0.150	1.000	0.000	-0.006	0.008
151.000	-0.151	1.000	0.000	-0.002	0.008
152.000	-0.152	1.000	0.000	0.011	0.008
153.000	-0.153	1.000	0.000	0.001	0.008
154.000	-0.154	1.000	0.000	0.020	0.008
155.000	-0.155	1.000	0.000	0.019	0.008
156.000	-0.156	1.000	0.000	0.023	0.008
157.000	-0.157	1.000	0.000	0.005	0.008
158.000	-0.158	1.000	0.000	0.005	0.008
159.000	-0.159	1.000	0.000	-0.021	0.008
160.000	-0.160	1.000	0.000	0.024	0.008
161.000	-0.161	1.000	0.000	0.017	0.008
162.000	-0.162	1.000	0.000	0.014	0.008
163.000	-0.163	1.000	0.000	-0.006	0.008
164.000	-0.164	1.000	0.000	0.028	0.008
165.000	-0.165	1.000	0.000	0.005	0.008
166.000	-0.166	1.000	0.000	0.013	0.008
167.000	-0.167	1.000	0.000	0.014	0.008
168.000	-0.168	1.000	0.000	0.013	0.008
169.000	-0.169	1.000	0.000	0.002	0.008
170.000	-0.170	1.000	0.000	0.023	0.008
171.000	-0.171	1.000	0.000	-0.012	0.008
172.000	-0.172	1.000	0.000	-0.005	0.008
173.000	-0.173	1.000	0.000	0.005	0.008
174.000	-0.174	1.000	0.000	0.015	0.008
175.000	-0.175	1.000	0.000	0.017	0.008
176.000	-0.176	1.000	0.000	0.000	0.008
177.000	-0.177	1.000	0.000	-0.014	0.008
178.000	-0.178	1.000	0.000	0.013	0.008
179.000	-0.179	1.000	0.000	0.011	0.008
180.000	-0.180	1.000	0.000	0.004	0.008
181.000	-0.181	1.000	0.000	-0.012	0.008
182.000	-0.182	1.000	0.000	0.027	0.008
183.000	-0.183	1.000	0.000	0.028	0.008
184.000	-0.184	1.000	0.000	0.004	0.008
185.000	-0.185	1.000	0.000	0.011	0.008
186.000	-0.186	1.000	0.000	-0.015	0.008
187.000	-0.187	1.000	0.000	-0.012	0.008
188.000	-0.188	1.000	0.000	0.010	0.008
189.000	-0.189	1.000	0.000	0.001	0.008
190.000	-0.190	1.000	0.000	0.042	0.008
191.000	-0.191	1.000	0.000	-0.005	0.008
192.000	-0.192	1.000	0.000	-0.007	0.008
193.000	-0.193	1.000	0.000	-0.000	0.008
194.000	-0.194	1.000	0.000	0.003	0.008
195.000	-0.195	1.000	0.000	0.019	0.008
196.000	-0.196	1.000	0.000	0.022	0.008
197.000	-0.197	1.000	0.000	0.014	0.008
198.000	-0.198	1.000	0.000	0.005	0.008
199.000	-0.199	1.000	0.000	0.028	0.008
200.000	-0.200	1.000	0.000	-0.007	0.008
201.000	-0.201	1.000	0.000	0.004	0.008
202.000	-0.202	1.000	0.000	-0.005	0.008
203.000	-0.203	1.000	0.000	0.025	0.008
204.000	-0.204	1.000	0.000	-0.015	0.008
205.000	-0.205	1.000	0.000	0.024	0.008
206.000	-0.206	1.000	0.000	0.000	0.008
207.000	-0.207	1.000	0.000	0.015	0.008
208.000	-0.208	1.000	0.000	-0.010	0.008
209.000	-0.209	1.000	0.000	-0.005	0.008
210.000	-0.210	1.000	0.000	0.022	0.008
211.000	-0.211	1.000	0.000	0.011	0.008
212.000	-0.212	1.000	0.000	0.004	0.008
213.000	-0.213	1.000	0.000	0.012	0.008
214.000	-0.214	1.000	0.000	0.024	0.008
215.000	-0.215	1.000	0.000	-0.013	0.008
216.000	-0.216	1.000	0.000	-0.008	0.008
217.000	-0.217	1.000	0.000	0.010	0.008
218.000	-0.218	1.000	0.000	0.006	0.008
219.000	-0.219	1.000	0.000	0.005	0.008
220.000	-0.220	1.000	0.000	0.006	0.008
221.000	-0.221	1.000	0.000	0.013	0.008
222.000	-0.222	1.000	0.000	0.021	0.008
223.000	-0.223	1.000	0.000	0.006	0.008
224.000	-0.224	1.000	0.000	-0.008	0.008
225.000	-0.225	1.000	0.000	0.038	0.008
226.000	-0.226	1.000	0.000	-0.004	0.008
227.000	-0.227	1.000	0.000	0.024	0.008
228.000	-0.228	1.000	0.000	-0.019	0.008
229.000	-0.229	1.000	0.000	0.002	0.008
230.000	-0.230	1.000	0.000	0.009	0.008
231.000	-0.231	1.000	0.000	-0.011	0.008
232.000	-0.232	1.000	0.000	0.006	0.008
233.000	-0.233	1.000	0.000	0.042	0.008
234.000	-0.234	1.000	0.000	0.021	0.008
235.000	-0.235	1.000	0.000	-0.014	0.008
236.000	-0.236	1.000	0.000	0.011	0.008
237.000	-0.237	1.000	0.000	0.001	0.008
238.000	-0.238	1.000	0.000	0.023	0.008
239.000	-0.239	1.000	0.000	-0.007	0.008
240.000	-0.240	1.000	0.000	0.024	0.008
241.000	-0.241	1.000	0.000	-0.002	0.008
242.000	-0.242	1.000	0.000	-0.023	0.008
243.000	-0.243	1.000	0.000	-0.002	0.008
244.000	-0.244	1.000	0.000	0.009	0.008
245.000	-0.245	1.000	0.000	0.013	0.008
246.000	-0.246	1.000	0.000	-0.011	0.008
247.000	-0.247	1.000	0.000	-0.020	0.008
248.000	-0.248	1.000	0.000	0.012	0.008
249.000	-0.249	1.000	0.000	0.006	0.008
250.000	-0.250	1.000	0.000	-0.002	0.008
251.000	-0.251	1.000	0.000	0.008	0.008
252.000	-0.252	1.000	0.000	0.008	0.008
253.000	-0.253	1.000	0.000	-0.006	0.008
254.000	-0.254	1.000	0.000	-0.007	0.008
255.000	-0.255	1.000	0.000	-0.008	0.008
256.000	-0.256	1.000	0.000	0.013	0.008
257.000	-0.257	1.000	0.000	0.002	0.008
258.000	-0.258	1.000	0.000	0.017	0.008
259.000	-0.259	1.000	0.000	0.005	0.008
260.000	-0.260	1.000	0.000	0.003	0.008
261.000	-0.261	1.000	0.000	0.027	0.008
262.000	-0.262	1.000	0.000	0.020	0.008
263.000	-0.263	1.000	0.000	0.015	0.008
264.000	-0.264	1.000	0.000	-0.017	0.008
265.000	-0.265	1.000	0.000	0.010	0.008
266.000	-0.266	1.000	0.000	0.027	0.008
267.000	-0.267	1.000	0.000	0.009	0.008
268.000	-0.268	1.000	0.000	-0.005	0.008
269.000	-0.269	1.000	0.000	0.005	0.008
270.000	-0.270	1.000	0.000	0.024	0.008
271.000	-0.271	1.000	0.000	0.015	0.008
272.000	-0.272	1.000	0.000	0.024	0.008
273.000	-0.273	1.000	0.000	-0.006	0.008
274.000	-0.274	1.000	0.000	0.003	0.008
275.000	-0.275	1.000	0.000	0.014	0.008
276.000	-0.276	1.000	0.000	0.000	0.008
277.000	-0.277	1.000	0.000	-0.002	0.008
278.000	-0.278	1.000	0.000	0.005	0.008
279.000	-0.279	1.000	0.000	0.017	0.008
280.000	-0.280	1.000	0.000	-0.005	0.008
281.000	-0.281	1.000	0.000	0.016	0.008
282.000	-0.282	1.000	0.000	-0.009	0.008
283.000	-0.283	1.000	0.000	0.029	0.008
284.000	-0.284	1.000	0.000	0.035	0.008
285.000	-0.285	1.000	0.000	0.020	0.008
286.000	-0.286	1.000	0.000	0.015	0.008
287.000	-0.287	1.000	0.000	0.048	0.008
288.000	-0.288	1.000	0.000	-0.012	0.008
289.000	-0.289	1.000	0.000	-0.001	0.008
290.000	-0.290	1.000	0.000	0.002	0.008
291.000	-0.291	1.000	0.000	0.003	0.008
292.000	-0.292	1.000	0.000	0.014	0.008
293.000	-0.293	1.000	0.000	0.005	0.008
294.000	-0.294	1.000	0.000	-0.006	0.008
295.000	-0.295	1.000	0.000	0.020	0.008
296.000	-0.296	1.000	0.000	0.000	0.008
297.000	-0.297	1.000	0.000	0.008	0.008
298.000	-0.298	1.000	0.000	-0.026	0.008
299.000	-0.299	1.000	0.000	0.003	0.008
300.000	-0.300	1.000	0.000	0.001	0.008
301.000	-0.301	1.000	0.000	0.004	0.008
302.000	-0.302	1.000	0.000	-0.006	0.008
303.000	-0.303	1.000	0.000	-0.004	0.008
304.000	-0.304	1.000	0.000	0.009	0.008
305.000	-0.305	1.000	0.000	-0.006	0.008
306.000	-0.306	1.000	0.000	-0.008	0.008
307.000	-0.307	1.000	0.000	0.003	0.008
308.000	-0.308	1.000	0.000	0.017	0.008
309.000	-0.309	1.000	0.000	0.003	0.008
310.000	-0.310	1.000	0.000	0.007	0.008
311.000	-0.311	1.000	0.000	0.005	0.008
312.000	-0.312	1.000	0.000	0.019	0.008
313.000	-0.313	1.000	0.000	0.007	0.008
314.000	-0.314	1.000	0.000	0.010	0.008
315.000	-0.315	1.000	0.000	-0.004	0.008
316.000	-0.316	1.000	0.000	0.039	0.008
317.000	-0.317	1.000	0.000	0.034	0.008
318.000	-0.318	1.000	0.000	0.008	0.008
319.000	-0.319	1.000	0.000	0.002	0.008
320.000	-0.320	1.000	0.000	0.022	0.008
321.000	-0.321	1.000	0.000	0.019	0.008
322.000	-0.322	1.000	0.000	0.006	0.008
323.000	-0.323	1.000	0.000	0.007	0.008
324.000	-0.324	1.000	0.000	0.022	0.008
325.000	-0.325	1.000	0.000	0.019	0.008
326.000	-0.326	1.000	0.000	0.012	0.008
327.000	-0.327	1.000	0.000	-0.020	0.008
328.000	-0.328	1.000	0.000	0.007	0.008
329.000	-0.329	1.000	0.000	0.035	0.008
330.000	-0.330	1.000	0.000	-0.019	0.008
331.000	-0.331	1.000	0.000	0.019	0.008
332.000	-0.332	1.000	0.000	-0.014	0.008
333.000	-0.333	1.000	0.000	0.009	0.008
334.000	-0.334	1.000	0.000	0.020	0.008
335.000	-0.335	1.000	0.000	0.005	0.008
336.000	-0.336	1.000	0.000	0.009	0.008
337.000	-0.337	1.000	0.000	0.014	0.008
338.000	-0.338	1.000	0.000	0.020	0.008
339.000	-0.339	1.000	0.000	0.003	0.008
340.000	-0.340	1.000	0.000	0.014	0.008
341.000	-0.341	1.000	0.000	-0.002	0.008
342.000	-0.342	1.000	0.000	0.017	0.008
343.000	-0.343	1.000	0.000	0.010	0.008
344.000	-0.344	1.000	0.000	-0.024	0.008
345.000	-0.345	1.000	0.000	0.011	0.008
346.000	-0.346	1.000	0.000	0.026	0.008
347.000	-0.347	1.000	0.000	0.017	0.008
348.000	-0.348	1.000	0.000	-0.015	0.008
349.000	-0.349	1.000	0.000	0.005	0.008
350.000	-0.350	1.000	0.000	-0.008	0.008
351.000	-0.351	1.000	0.000	0.009	0.008
352.000	-0.352	1.000	0.000	0.003	0.008
353.000	-0.353	1.000	0.000	0.016	0.008
354.000	-0.354	1.000	0.000	0.007	0.008
355.000	-0.355	1.000	0.000	-0.019	0.008
356.000	-0.356	1.000	0.000	0.017	0.008
357.000	-0.357	1.000	0.000	-0.003	0.008
358.000	-0.358	1.000	0.000	0.022	0.008
359.000	-0.359	1.000	0.000	-0.004	0.008
360.000	-0.360	1.000	0.000	0.005	0.008
361.000	-0.361	1.000	0.000	-0.009	0.008
362.000	-0.362	1.000	0.000	0.005	0.008
363.000	-0.363	1.000	0.000	0.010	0.008
364.000	-0.364	1.000	0.000	0.020	0.008
365.000	-0.365	1.000	0.000	-0.013	0.008
366.000	-0.366	1.000	0.000	0.018	0.008
367.000	-0.367	1.000	0.000	-0.018	0.008
368.000	-0.368	1.000	0.000	0.008	0.008
369.000	-0.369	1.000	0.000	0.013	0.008
370.000	-0.370	1.000	0.000	0.028	0.008
371.000	-0.371	1.000	0.000	-0.017	0.008
372.000	-0.372	1.000	0.000	0.011	0.008
373.000	-0.373	1.000	0.000	0.007	0.008
374.000	-0.374	1.000	0.000	0.007	0.008
375.000	-0.375	1.000	0.000	0.010	0.008
376.000	-0.376	1.000	0.000	0.013	0.008
377.000	-0.377	1.000	0.000	0.035	0.008
378.000	-0.378	1.000	0.000	-0.003	0.008
379.000	-0.379	1.000	0.000	0.009	0.008
380.000	-0.380	1.000	0.000	-0.012	0.008
381.000	-0.381	1.000	0.000	0.003	0.008
382.000	-0.382	1.000	0.000	-0.004	0.008
383.000	-0.383	1.000	0.000	-0.006	0.008
384.000	-0.384	1.000	0.000	-0.002	0.008
385.000	-0.385	1.000	0.000	-0.001	0.008
386.000	-0.386	1.000	0.000	0.030	0.008
387.000	-0.387	1.000	0.000	0.035	0.008
388.000	-0.388	1.000	0.000	0.021	0.008
389.000	-0.389	1.000	0.000	0.012	0.008
390.000	-0.390	1.000	0.000	0.022	0.008
391.000	-0.391	1.000	0.000	0.008	0.008
392.000	-0.392	1.000	0.000	0.032	0.008
393.000	-0.393	1.000	0.000	0.008	0.008
394.000	-0.394	1.000	0.000	0.023	0.008
395.000	-0.395	1.000	0.000	0.017	0.008
396.000	-0.396	1.000	0.000	0.004	0.008
397.000	-0.397	1.000	0.000	0.029	0.008
398.000	-0.398	1.000	0.000	0.034	0.008
399.000	-0.399	1.000	0.000	0.032	0.008
400.000	-0.400	1.000	0.000	-0.009	0.008
401.000	-0.401	1.000	0.000	-0.001	0.008
402.000	-0.402	1.000	0.000	-0.012	0.008
403.000	-0.403	1.000	0.000	-0.003	0.008
404.000	-0.404	1.000	0.000	0.017	0.008
405.000	-0.405	1.000	0.000	0.013	0.008
406.000	-0.406	1.000	0.000	0.001	0.008
407.000	-0.407	1.000	0.000	0.011	0.008
408.000	-0.408	1.000	0.000	0.012	0.008
409.000	-0.409	1.000	0.000	-0.014	0.008
410.000	-0.410	1.000	0.000	-0.016	0.008
411.000	-0.411	1.000	0.000	0.015	0.008
412.000	-0.412	1.000	0.000	-0.000	0.008
413.000	-0.413	1.000	0.000	0.007	0.008
414.000	-0.414	1.000	0.000	-0.002	0.008
415.000	-0.415	1.000	0.000	-0.016	0.008
416.000	-0.416	1.000	0.000	0.001	0.008
417.000	-0.417	1.000	0.000	0.040	0.008
418.000	-0.418	1.000	0.000	-0.000	0.008
419.000	-0.419	1.000	0.000	0.008	0.008
420.000	-0.420	1.000	0.000	0.004	0.008
421.000	-0.421	1.000	0.000	-0.013	0.008
422.000	-0.422	1.000	0.000	0.015	0.008
423.000	-0.423	1.000	0.000	0.008	0.008
424.000	-0.424	1.000	0.000	0.028	0.008
425.000	-0.425	1.000	0.000	-0.001	0.008
426.000	-0.426	1.000	0.000	0.018	0.008
427.000	-0.427	1.000	0.000	0.007	0.008
428.000	-0.428	1.000	0.000	-0.002	0.008
429.000	-0.429	1.000	0.000	0.008	0.008
430.000	-0.430	1.000	0.000	0.029	0.008
431.000	-0.431	1.000	0.000	0.037	0.008
432.000	-0.432	1.000	0.000	0.012	0.008
433.000	-0.433	1.000	0.000	0.034	0.008
434.000	-0.434	1.000	0.000	0.017	0.008
435.000	-0.435	1.000	0.000	0.001	0.008
436.000	-0.436	1.000	0.000	0.002	0.008
437.000	-0.437	1.000	0.000	0.019	0.008
438.000	-0.438	1.000	0.000	0.022	0.008
439.000	-0.439	1.000	0.000	-0.007	0.008
440.000	-0.440	1.000	0.000	-0.010	0.008
441.000	-0.441	1.000	0.000	0.010	0.008
442.000	-0.442	1.000	0.000	-0.003	0.008
443.000	-0.443	1.000	0.000	0.009	0.008
444.000	-0.444	1.000	0.000	-0.001	0.008
445.000	-0.445	1.000	0.000	0.005	0.008
446.000	-0.446	1.000	0.000	0.015	0.008
447.000	-0.447	1.000	0.000	0.026	0.008
448.000	-0.448	1.000	0.000	0.028	0.008
449.000	-0.449	1.000	0.000	-0.014	0.008
450.000	-0.450	1.000	0.000	0.015	0.008
451.000	-0.451	1.000	0.000	0.005	0.008
452.000	-0.452	1.000	0.000	0.023	0.008
453.000	-0.453	1.000	0.000	0.013	0.008
454.000	-0.454	1.000	0.000	0.009	0.008
455.000	-0.455	1.000	0.000	0.007	0.008
456.000	-0.456	1.000	0.000	-0.001	0.008
457.000	-0.457	1.000	0.000	0.019	0.008
458.000	-0.458	1.000	0.000	-0.006	0.008
459.000	-0.459	1.000	0.000	0.012	0.008
460.000	-0.460	1.000	0.000	-0.002	0.008
461.000	-0.461	1.000	0.000	0.010	0.008
462.000	-0.462	1.000	0.000	0.033	0.008
463.000	-0.463	1.000	0.000	0.025	0.008
464.000	-0.464	1.000	0.000	0.011	0.008
465.000	-0.465	1.000	0.000	0.027	0.008
466.000	-0.466	1.000	0.000	-0.010	0.008
467.000	-0.467	1.000	0.000	0.004	0.008
468.000	-0.468	1.000	0.000	0.021	0.008
469.000	-0.469	1.000	0.000	0.033	0.008
470.000	-0.470	1.000	0.000	-0.020	0.008
471.000	-0.471	1.000	0.000	0.002	0.008
472.000	-0.472	1.000	0.000	0.025	0.008
473.000	-0.473	1.000	0.000	-0.003	0.008
474.000	-0.474	1.000	0.000	-0.030	0.008
475.000	-0.475	1.000	0.000	0.003	0.008
476.000	-0.476	1.000	0.000	0.022	0.008
477.000	-0.477	1.000	0.000	0.012	0.008
478.000	-0.478	1.000	0.000	0.007	0.008
479.000	-0.479	1.000	0.000	0.005	0.008
480.000	-0.480	1.000	0.000	-0.000	0.008
481.000	-0.481	1.000	0.000	0.006	0.008
482.000	-0.482	1.000	0.000	0.014	0.008
483.000	-0.483	1.000	0.000	0.015	0.008
484.000	-0.484	1.000	0.000	0.016	0.008
485.000	-0.485	1.000	0.000	-0.008	0.008
486.000	-0.486	1.000	0.000	0.020	0.008
487.000	-0.487	1.000	0.000	0.024	0.008
488.000	-0.488	1.000	0.000	0.038	0.008
489.000	-0.489	1.000	0.000	-0.017	0.008
490.000	-0.490	1.000	0.000	0.001	0.008
491.000	-0.491	1.000	0.000	0.003	0.008
492.000	-0.492	1.000	0.000	0.007	0.008
493.000	-0.493	1.000	0.000	0.007	0.008
494.000	-0.494	1.000	0.000	-0.003	0.008
495.000	-0.495	1.000	0.000	0.013	0.008
496.000	-0.496	1.000	0.000	0.016	0.008
497.000	-0.497	1.000	0.000	-0.004	0.008
498.000	-0.498	1.000	0.000	0.001	0.008
499.000	-0.499	1.000	0.000	0.011	0.008
500.000	-0.500	1.000	0.000	0.006	0.008
501.000	-0.501	1.000	0.000	0.008	0.008
502.000	-0.502	1.000	0.000	0.020	0.008
503.000	-0.503	1.000	0.000	0.004	0.008
504.000	-0.504	1.000	0.000	0.018	0.008
505.000	-0.505	1.000	0.000	0.006	0.008
506.000	-0.506	1.000	0.000	0.026	0.008
507.000	-0.507	1.000	0.000	0.029	0.008
508.000	-0.508	1.000	0.000	-0.002	0.008
509.000	-0.509	1.000	0.000	0.014	0.008
510.000	-0.510	1.000	0.000	0.002	0.008
511.000	-0.511	1.000	0.000	0.005	0.008
512.000	-0.512	1.000	0.000	0.030	0.008
513.000	-0.513	1.000	0.000	0.009	0.008
514.000	-0.514	1.000	0.000	0.007	0.008
515.000	-0.515	1.000	0.000	0.013	0.008
516.000	-0.516	1.000	0.000	0.010	0.008
517.000	-0.517	1.000	0.000	0.007	0.008
518.000	-0.518	1.000	0.000	0.029	0.008
519.000	-0.519	1.000	0.000	-0.005	0.008
520.000	-0.520	1.000	0.000	0.002	0.008
521.000	-0.521	1.000	0.000	0.016	0.008
522.000	-0.522	1.000	0.000	-0.014	0.008
523.000	-0.523	1.000	0.000	0.004	0.008
524.000	-0.524	1.000	0.000	0.030	0.008
525.000	-0.525	1.000	0.000	0.002	0.008
526.000	-0.526	1.000	0.000	0.022	0.008
527.000	-0.527	1.000	0.000	-0.006	0.008
528.000	-0.528	1.000	0.000	0.032	0.008
529.000	-0.529	1.000	0.000	-0.003	0.008
530.000	-0.530	1.000	0.000	0.003	0.008
531.000	-0.531	1.000	0.000	-0.002	0.008
532.000	-0.532	1.000	0.000	-0.004	0.008
533.000	-0.533	1.000	0.000	0.032	0.008
534.000	-0.534	1.000	0.000	0.022	0.008
535.000	-0.535	1.000	0.000	-0.002	0.008
536.000	-0.536	1.000	0.000	0.003	0.008
537.000	-0.537	1.000	0.000	-0.014	0.008
538.000	-0.538	1.000	0.000	-0.000	0.008
539.000	-0.539	1.000	0.000	-0.012	0.008
540.000	-0.540	1.000	0.000	-0.012	0.008
541.000	-0.541	1.000	0.000	0.017	0.008
542.000	-0.542	1.000	0.000	0.010	0.008
543.000	-0.543	1.000	0.000	0.026	0.008
544.000	-0.544	1.000	0.000	0.019	0.008
545.000	-0.545	1.000	0.000	0.013	0.008
546.000	-0.546	1.000	0.000	0.001	0.008
547.000	-0.547	1.000	0.000	0.021	0.008
548.000	-0.548	1.000	0.000	-0.006	0.008
549.000	-0.549	1.000	0.000	0.029	0.008
550.000	-0.550	1.000	0.000	0.023	0.008
551.000	-0.551	1.000	0.000	0.021	0.008
552.000	-0.552	1.000	0.000	0.008	0.008
553.000	-0.553	1.000	0.000	0.022	0.008
554.000	-0.554	1.000	0.000	0.015	0.008
555.000	-0.555	1.000	0.000	0.041	0.008
556.000	-0.556	1.000	0.000	0.015	0.008
557.000	-0.557	1.000	0.000	-0.012	0.008
558.000	-0.558	1.000	0.000	0.007	0.008
559.000	-0.559	1.000	0.000	0.014	0.008
560.000	-0.560	1.000	0.000	0.033	0.008
561.000	-0.561	1.000	0.000	0.018	0.008
562.000	-0.562	1.000	0.000	-0.019	0.008
563.000	-0.563	1.000	0.000	0.009	0.008
564.000	-0.564	1.000	0.000	0.028	0.008
565.000	-0.565	1.000	0.000	-0.000	0.008
566.000	-0.566	1.000	0.000	0.019	0.008
567.000	-0.567	1.000	0.000	0.021	0.008
568.000	-0.568	1.000	0.000	0.018	0.008
569.000	-0.569	1.000	0.000	0.009	0.008
570.000	-0.570	1.000	0.000	0.020	0.008
571.000	-0.571	1.000	0.000	0.021	0.008
572.000	-0.572	1.000	0.000	0.003	0.008
573.000	-0.573	1.000	0.000	0.019	0.008
574.000	-0.574	1.000	0.000	0.008	0.008
575.000	-0.575	1.000	0.000	0.020	0.008
576.000	-0.576	1.000	0.000	0.037	0.008
577.000	-0.577	1.000	0.000	0.028	0.008
578.000	-0.578	1.000	0.000	0.003	0.008
579.000	-0.579	1.000	0.000	-0.007	0.008
580.000	-0.580	1.000	0.000	0.008	0.008
581.000	-0.581	1.000	0.000	0.022	0.008
582.000	-0.582	1.000	0.000	0.030	0.008
583.000	-0.583	1.000	0.000	0.015	0.008
584.000	-0.584	1.000	0.000	0.015	0.008
585.000	-0.585	1.000	0.000	0.029	0.008
586.000	-0.586	1.000	0.000	0.008	0.008
587.000	-0.587	1.000	0.000	0.027	0.008
588.000	-0.588	1.000	0.000	0.015	0.008
589.000	-0.589	1.000	0.000	0.021	0.008
590.000	-0.590	1.000	0.000	-0.008	0.008
591.000	-0.591	1.000	0.000	0.012	0.008
592.000	-0.592	1.000	0.000	0.008	0.008
593.000	-0.593	1.000	0.000	0.021	0.008
594.000	-0.594	1.000	0.000	0.023	0.008
595.000	-0.595	1.000	0.000	-0.017	0.008
596.000	-0.596	1.000	0.000	0.011	0.008
597.000	-0.597	1.000	0.000	0.001	0.008
598.000	-0.598	1.000	0.000	0.002	0.008
599.000	-0.599	1.000	0.000	0.011	0.008
600.000	-0.600	1.000	0.000	-0.003	0.008
601.000	-0.601	1.000	0.000	0.000	0.008
602.000	-0.602	1.000	0.000	-0.005	0.008
603.000	-0.603	1.000	0.000	-0.012	0.008
604.000	-0.604	1.000	0.000	0.009	0.008
605.000	-0.605	1.000	0.000	-0.011	0.008
606.000	-0.606	1.000	0.000	-0.015	0.008
607.000	-0.607	1.000	0.000	0.002	0.008
608.000	-0.608	1.000	0.000	-0.001	0.008
609.000	-0.609	1.000	0.000	0.001	0.008
610.000	-0.610	1.000	0.000	0.008	0.008
611.000	-0.611	1.000	0.000	0.013	0.008
612.000	-0.612	1.000	0.000	-0.000	0.008
613.000	-0.613	1.000	0.000	0.003	0.008
614.000	-0.614	1.000	0.000	0.008	0.008
615.000	-0.615	1.000	0.000	0.010	0.008
616.000	-0.616	1.000	0.000	0.005	0.008
617.000	-0.617	1.000	0.000	0.011	0.008
618.000	-0.618	1.000	0.000	0.025	0.008
619.000	-0.619	1.000	0.000	0.000	0.008
620.000	-0.620	1.000	0.000	0.005	0.008
621.000	-0.621	1.000	0.000	-0.017	0.008
622.000	-0.622	1.000	0.000	0.001	0.008
623.000	-0.623	1.000	0.000	0.006	0.008
624.000	-0.624	1.000	0.000	0.023	0.008
625.000	-0.625	1.000	0.000	0.010	0.008
626.000	-0.626	1.000	0.000	0.016	0.008
627.000	-0.627	1.000	0.000	-0.007	0.008
628.000	-0.628	1.000	0.000	0.024	0.008
629.000	-0.629	1.000	0.000	-0.011	0.008
630.000	-0.630	1.000	0.000	0.007	0.008
631.000	-0.631	1.000	0.000	0.007	0.008
632.000	-0.632	1.000	0.000	-0.008	0.008
633.000	-0.633	1.000	0.000	0.013	0.008
634.000	-0.634	1.000	0.000	-0.006	0.008
635.000	-0.635	1.000	0.000	-0.006	0.008
636.000	-0.636	1.000	0.000	-0.001	0.008
637.000	-0.637	1.000	0.000	0.006	0.008
638.000	-0.638	1.000	0.000	0.017	0.008
639.000	-0.639	1.000	0.000	0.017	0.008
640.000	-0.640	1.000	0.000	0.005	0.008
641.000	-0.641	1.000	0.000	0.018	0.008
642.000	-0.642	1.000	0.000	0.010	0.008
643.000	-0.643	1.000	0.000	0.037	0.008
644.000	-0.644	1.000	0.000	0.020	0.008
645.000	-0.645	1.000	0.000	0.031	0.008
646.000	-0.646	1.000	0.000	0.052	0.008
647.000	-0.647	1.000	0.000	0.023	0.008
648.000	-0.648	1.000	0.000	0.014	0.008
649.000	-0.649	1.000	0.000	-0.010	0.008
650.000	-0.650	1.000	0.000	0.004	0.008
651.000	-0.651	1.000	0.000	-0.004	0.008
652.000	-0.652	1.000	0.000	0.000	0.008
653.000	-0.653	1.000	0.000	0.014	0.008
654.000	-0.654	1.000	0.000	0.021	0.008
655.000	-0.655	1.000	0.000	0.020	0.008
656.000	-0.656	1.000	0.000	0.014	0.008
657.000	-0.657	1.000	0.000	0.037	0.008
658.000	-0.658	1.000	0.000	0.008	0.008
659.000	-0.659	1.000	0.000	0.033	0.008
660.000	-0.660	1.000	0.000	0.011	0.008
661.000	-0.661	1.000	0.000	0.023	0.008
662.000	-0.662	1.000	0.000	0.022	0.008
663.000	-0.663	1.000	0.000	0.023	0.008
664.000	-0.664	1.000	0.000	0.006	0.008
665.000	-0.665	1.000	0.000	0.002	0.008
666.000	-0.666	1.000	0.000	0.029	0.008
667.000	-0.667	1.000	0.000	0.021	0.008
668.000	-0.668	1.000	0.000	0.015	0.008
669.000	-0.669	1.000	0.000	0.023	0.008
670.000	-0.670	1.000	0.000	0.014	0.008
671.000	-0.671	1.000	0.000	0.009	0.008
672.000	-0.672	1.000	0.000	0.008	0.008
673.000	-0.673	1.000	0.000	0.020	0.008
674.000	-0.674	1.000	0.000	0.010	0.008
675.000	-0.675	1.000	0.000	0.038	0.008
676.000	-0.676	1.000	0.000	-0.001	0.008
677.000	-0.677	1.000	0.000	0.027	0.008
678.000	-0.678	1.000	0.000	-0.002	0.008
679.000	-0.679	1.000	0.000	0.023	0.008
680.000	-0.680	1.000	0.000	0.008	0.008
681.000	-0.681	1.000	0.000	0.006	0.008
682.000	-0.682	1.000	0.000	0.023	0.008
683.000	-0.683	1.000	0.000	0.004	0.008
684.000	-0.684	1.000	0.000	0.010	0.008
685.000	-0.685	1.000	0.000	-0.015	0.008
686.000	-0.686	1.000	0.000	0.016	0.008
687.000	-0.687	1.000	0.000	0.009	0.008
688.000	-0.688	1.000	0.000	0.023	0.008
689.000	-0.689	1.000	0.000	0.014	0.008
690.000	-0.690	1.000	0.000	-0.015	0.008
691.000	-0.691	1.000	0.000	-0.009	0.008
692.000	-0.692	1.000	0.000	-0.007	0.008
693.000	-0.693	1.000	0.000	0.035	0.008
694.000	-0.694	1.000	0.000	0.028	0.008
695.000	-0.695	1.000	0.000	0.003	0.008
696.000	-0.696	1.000	0.000	-0.004	0.008
697.000	-0.697	1.000	0.000	-0.006	0.008
698.000	-0.698	1.000	0.000	0.009	0.008
699.000	-0.699	1.000	0.000	-0.005	0.008
700.000	-0.700	1.000	0.000	0.015	0.008
701.000	-0.701	1.000	0.000	-0.006	0.008
702.000	-0.702	1.000	0.000	0.006	0.008
703.000	-0.703	1.000	0.000	0.029	0.008
704.000	-0.704	1.000	0.000	-0.004	0.008
705.000	-0.705	1.000	0.000	0.002	0.008
706.000	-0.706	1.000	0.000	0.020	0.008
707.000	-0.707	1.000	0.000	0.012	0.008
708.000	-0.708	1.000	0.000	0.023	0.008
709.000	-0.709	1.000	0.000	0.026	0.008
710.000	-0.710	1.000	0.000	-0.007	0.008
711.000	-0.711	1.000	0.000	-0.002	0.008
712.000	-0.712	1.000	0.000	0.017	0.008
713.000	-0.713	1.000	0.000	0.006	0.008
714.000	-0.714	1.000	0.000	0.031	0.008
715.000	-0.715	1.000	0.000	0.008	0.008
716.000	-0.716	1.000	0.000	0.014	0.008
717.000	-0.717	1.000	0.000	0.044	0.008
718.000	-0.718	1.000	0.000	0.012	0.008
719.000	-0.719	1.000	0.000	0.047	0.008
720.000	-0.720	1.000	0.000	-0.000	0.008
721.000	-0.721	1.000	0.000	0.027	0.008
722.000	-0.722	1.000	0.000	0.008	0.008
723.000	-0.723	1.000	0.000	0.014	0.008
724.000	-0.724	1.000	0.000	-0.002	0.008
725.000	-0.725	1.000	0.000	0.020	0.008
726.000	-0.726	1.000	0.000	0.011	0.008
727.000	-0.727	1.000	0.000	-0.017	0.008
728.000	-0.728	1.000	0.000	-0.008	0.008
729.000	-0.729	1.000	0.000	0.033	0.008
730.000	-0.730	1.000	0.000	0.043	0.008
731.000	-0.731	1.000	0.000	0.039	0.008
732.000	-0.732	1.000	0.000	0.012	0.008
733.000	-0.733	1.000	0.000	0.006	0.008
734.000	-0.734	1.000	0.000	0.022	0.008
735.000	-0.735	1.000	0.000	0.010	0.008
736.000	-0.736	1.000	0.000	0.049	0.008
737.000	-0.737	1.000	0.000	0.024	0.008
738.000	-0.738	1.000	0.000	-0.003	0.008
739.000	-0.739	1.000	0.000	0.031	0.008
740.000	-0.740	1.000	0.000	0.031	0.008
741.000	-0.741	1.000	0.000	0.005	0.008
742.000	-0.742	1.000	0.000	-0.009	0.008
743.000	-0.743	1.000	0.000	-0.001	0.008
744.000	-0.744	1.000	0.000	0.025	0.008
745.000	-0.745	1.000	0.000	0.008	0.008
746.000	-0.746	1.000	0.000	0.008	0.008
747.000	-0.747	1.000	0.000	-0.006	0.008
748.000	-0.748	1.000	0.000	0.007	0.008
749.000	-0.749	1.000	0.000	0.034	0.008
750.000	-0.750	1.000	0.000	-0.003	0.008
751.000	-0.751	1.000	0.000	0.037	0.008
752.000	-0.752	1.000	0.000	0.024	0.008
753.000	-0.753	1.000	0.000	0.037	0.008
754.000	-0.754	1.000	0.000	0.017	0.008
755.000	-0.755	1.000	0.000	0.023	0.008
756.000	-0.756	1.000	0.000	0.002	0.008
757.000	-0.757	1.000	0.000	0.032	0.008
758.000	-0.758	1.000	0.000	0.021	0.008
759.000	-0.759	1.000	0.000	0.037	0.008
760.000	-0.760	1.000	0.000	0.015	0.008
761.000	-0.761	1.000	0.000	-0.006	0.008
762.000	-0.762	1.000	0.000	0.003	0.008
763.000	-0.763	1.000	0.000	-0.001	0.008
764.000	-0.764	1.000	0.000	0.041	0.008
765.000	-0.765	1.000	0.000	0.020	0.008
766.000	-0.766	1.000	0.000	0.031	0.008
767.000	-0.767	1.000	0.000	0.018	0.008
768.000	-0.768	1.000	0.000	0.016	0.008
769.000	-0.769	1.000	0.000	-0.003	0.008
770.000	-0.770	1.000	0.000	0.042	0.008
771.000	-0.771	1.000	0.000	0.015	0.008
772.000	-0.772	1.000	0.000	0.025	0.008
773.000	-0.773	1.000	0.000	-0.003	0.008
774.000	-0.774	1.000	0.000	-0.014	0.008
775.000	-0.775	1.000	0.000	0.011	0.008
776.000	-0.776	1.000	0.000	0.001	0.008
777.000	-0.777	1.000	0.000	0.038	0.008
778.000	-0.778	1.000	0.000	0.036	0.008
779.000	-0.779	1.000	0.000	0.035	0.008
780.000	-0.780	1.000	0.000	0.001	0.008
781.000	-0.781	1.000	0.000	0.018	0.008
782.000	-0.782	1.000	0.000	-0.008	0.008
783.000	-0.783	1.000	0.000	-0.020	0.008
784.000	-0.784	1.000	0.000	0.007	0.008
785.000	-0.785	1.000	0.000	0.013	0.008
786.000	-0.786	1.000	0.000	0.015	0.008
787.000	-0.787	1.000	0.000	0.021	0.008
788.000	-0.788	1.000	0.000	0.013	0.008
789.000	-0.789	1.000	0.000	0.044	0.008
790.000	-0.790	1.000	0.000	0.021	0.008
791.000	-0.791	1.000	0.000	0.014	0.008
792.000	-0.792	1.000	0.000	0.017	0.008
793.000	-0.793	1.000	0.000	0.002	0.008
794.000	-0.794	1.000	0.000	0.012	0.008
795.000	-0.795	1.000	0.000	0.044	0.008
796.000	-0.796	1.000	0.000	0.022	0.008
797.000	-0.797	1.000	0.000	0.027	0.008
798.000	-0.798	1.000	0.000	0.023	0.008
799.000	-0.799	1.000	0.000	0.029	0.008
800.000	-0.800	1.000	0.000	0.081	0.008
801.000	-0.801	1.000	0.000	0.019	0.008
802.000	-0.802	1.000	0.000	0.040	0.008
803.000	-0.803	1.000	0.000	0.024	0.008
804.000	-0.804	1.000	0.000	0.016	0.008
805.000	-0.805	1.000	0.000	0.058	0.008
806.000	-0.806	1.000	0.000	0.038	0.008
807.000	-0.807	1.000	0.000	-0.008	0.008
808.000	-0.808	1.000	0.000	0.034	0.008
809.000	-0.809	1.000	0.000	0.024	0.008
810.000	-0.810	1.000	0.000	0.113	0.008
811.000	-0.811	1.000	0.000	0.016	0.008
812.000	-0.812	1.000	0.000	0.007	0.008
813.000	-0.813	1.000	0.000	0.045	0.008
814.000	-0.814	1.000	0.000	0.015	0.008
815.000	-0.815	1.000	0.000	-0.006	0.008
816.000	-0.816	1.000	0.000	0.037	0.008
817.000	-0.817	1.000	0.000	0.050	0.008
818.000	-0.818	1.000	0.000	0.035	0.008
819.000	-0.819	1.000	0.000	0.066	0.008
820.000	-0.820	1.000	0.000	0.005	0.008
821.000	-0.821	1.000	0.000	0.089	0.008
822.000	-0.822	1.000	0.000	0.034	0.008
823.000	-0.823	1.000	0.000	0.019	0.008
824.000	-0.824	1.000	0.000	0.046	0.008
825.000	-0.825	1.000	0.000	0.076	0.008
826.000	-0.826	1.000	0.000	0.043	0.008
827.000	-0.827	1.000	0.000	0.098	0.008
828.000	-0.828	1.000	0.000	0.063	0.008
829.000	-0.829	1.000	0.000	0.107	0.008
830.000	-0.830	1.000	0.000	0.086	0.008
831.000	-0.831	1.000	0.000	0.136	0.008
832.000	-0.832	1.000	0.000	0.105	0.008
833.000	-0.833	1.000	0.000	0.104	0.008
834.000	-0.834	1.000	0.000	0.217	0.008
835.000	-0.835	1.000	0.000	0.285	0.008
836.000	-0.836	1.000	0.000	0.239	0.008
837.000	-0.837	1.000	0.000	0.194	0.008
838.000	-0.838	1.000	0.000	0.216	0.008
839.000	-0.839	1.000	0.000	0.329	0.008
840.000	-0.840	1.000	0.000	0.314	0.008
841.000	-0.841	1.000	0.000	0.191	0.008
842.000	-0.842	1.000	0.000	0.301	0.008
843.000	-0.843	1.000	0.000	0.202	0.008
844.000	-0.844	1.000	0.000	0.203	0.008
845.000	-0.845	1.000	0.000	0.163	0.008
846.000	-0.846	1.000	0.000	0.205	0.008
847.000	-0.847	1.000	0.000	0.165	0.008
848.000	-0.848	1.000	0.000	0.176	0.008
849.000	-0.849	1.000	0.000	0.169	0.008
850.000	-0.850	1.000	0.000	0.130	0.008
851.000	-0.851	1.000	0.000	0.192	0.008
852.000	-0.852	1.000	0.000	0.227	0.008
853.000	-0.853	1.000	0.000	0.274	0.008
854.000	-0.854	1.000	0.000	0.264	0.008
855.000	-0.855	1.000	0.000	0.234	0.008
856.000	-0.856	1.000	0.000	0.290	0.008
857.000	-0.857	1.000	0.000	0.259	0.008
858.000	-0.858	1.000	0.000	0.331	0.008
859.000	-0.859	1.000	0.000	0.244	0.008
860.000	-0.860	1.000	0.000	0.294	0.008
861.000	-0.861	1.000	0.000	0.250	0.008
862.000	-0.862	1.000	0.000	0.290	0.008
863.000	-0.863	1.000	0.000	0.224	0.008
864.000	-0.864	1.000	0.000	0.301	0.008
865.000	-0.865	1.000	0.000	0.111	0.008
866.000	-0.866	1.000	0.000	0.126	0.008
867.000	-0.867	1.000	0.000	0.148	0.008
868.000	-0.868	1.000	0.000	0.070	0.008
869.000	-0.869	1.000	0.000	0.124	0.008
870.000	-0.870	1.000	0.000	0.063	0.008
871.000	-0.871	1.000	0.000	0.084	0.008
872.000	-0.872	1.000	0.000	0.075	0.008
873.000	-0.873	1.000	0.000	0.068	0.008
874.000	-0.874	1.000	0.000	0.042	0.008
875.000	-0.875	1.000	0.000	0.050	0.008
876.000	-0.876	1.000	0.000	0.096	0.008
877.000	-0.877	1.000	0.000	0.074	0.008
878.000	-0.878	1.000	0.000	0.065	0.008
879.000	-0.879	1.000	0.000	0.105	0.008
880.000	-0.880	1.000	0.000	0.048	0.008
881.000	-0.881	1.000	0.000	0.080	0.008
882.000	-0.882	1.000	0.000	0.023	0.008
883.000	-0.883	1.000	0.000	0.019	0.008
884.000	-0.884	1.000	0.000	0.068	0.008
885.000	-0.885	1.000	0.000	0.034	0.008
886.000	-0.886	1.000	0.000	0.088	0.008
887.000	-0.887	1.000	0.000	0.052	0.008
888.000	-0.888	1.000	0.000	0.039	0.008
889.000	-0.889	1.000	0.000	0.042	0.008
890.000	-0.890	1.000	0.000	0.067	0.008
891.000	-0.891	1.000	0.000	0.043	0.008
892.000	-0.892	1.000	0.000	0.041	0.008
893.000	-0.893	1.000	0.000	0.047	0.008
894.000	-0.894	1.000	0.000	0.028	0.008
895.000	-0.895	1.000	0.000	0.027	0.008
896.000	-0.896	1.000	0.000	0.057	0.008
897.000	-0.897	1.000	0.000	0.038	0.008
898.000	-0.898	1.000	0.000	0.011	0.008
899.000	-0.899	1.000	0.000	0.046	0.008
900.000	-0.900	1.000	0.000	0.046	0.008
901.000	-0.901	1.000	0.000	0.038	0.008
902.000	-0.902	1.000	0.000	0.044	0.008
903.000	-0.903	1.000	0.000	0.066	0.008
904.000	-0.904	1.000	0.000	0.046	0.008
905.000	-0.905	1.000	0.000	0.040	0.008
906.000	-0.906	1.000	0.000	0.068	0.008
907.000	-0.907	1.000	0.000	0.026	0.008
908.000	-0.908	1.000	0.000	0.056	0.008
909.000	-0.909	1.000	0.000	0.003	0.008
910.000	-0.910	1.000	0.000	0.017	0.008
911.000	-0.911	1.000	0.000	0.001	0.008
912.000	-0.912	1.000	0.000	0.057	0.008
913.000	-0.913	1.000	0.000	0.042	0.008
914.000	-0.914	1.000	0.000	0.053	0.008
915.000	-0.915	1.000	0.000	0.012	0.008
916.000	-0.916	1.000	0.000	0.008	0.008
917.000	-0.917	1.000	0.000	0.019	0.008
918.000	-0.918	1.000	0.000	0.065	0.008
919.000	-0.919	1.000	0.000	0.033	0.008
920.000	-0.920	1.000	0.000	0.038	0.008
921.000	-0.921	1.000	0.000	0.014	0.008
922.000	-0.922	1.000	0.000	0.046	0.008
923.000	-0.923	1.000	0.000	0.029	0.008
924.000	-0.924	1.000	0.000	0.068	0.008
925.000	-0.925	1.000	0.000	-0.012	0.008
926.000	-0.926	1.000	0.000	0.031	0.008
927.000	-0.927	1.000	0.000	0.055	0.008
928.000	-0.928	1.000	0.000	0.034	0.008
929.000	-0.929	1.000	0.000	0.056	0.008
930.000	-0.930	1.000	0.000	0.009	0.008
931.000	-0.931	1.000	0.000	0.011	0.008
932.000	-0.932	1.000	0.000	0.088	0.008
933.000	-0.933	1.000	0.000	0.055	0.008
934.000	-0.934	1.000	0.000	0.093	0.008
935.000	-0.935	1.000	0.000	0.011	0.008
936.000	-0.936	1.000	0.000	0.034	0.008
937.000	-0.937	1.000	0.000	0.067	0.008
938.000	-0.938	1.000	0.000	0.043	0.008
939.000	-0.939	1.000	0.000	0.096	0.008
940.000	-0.940	1.000	0.000	0.019	0.008
941.000	-0.941	1.000	0.000	0.103	0.008
942.000	-0.942	1.000	0.000	0.079	0.008
943.000	-0.943	1.000	0.000	0.137	0.008
944.000	-0.944	1.000	0.000	0.091	0.008
945.000	-0.945	1.000	0.000	0.118	0.008
946.000	-0.946	1.000	0.000	0.176	0.008
947.000	-0.947	1.000	0.000	0.186	0.008
948.000	-0.948	1.000	0.000	0.184	0.008
949.000	-0.949	1.000	0.000	0.307	0.008
950.000	-0.950	1.000	0.000	0.288	0.008
951.000	-0.951	1.000	0.000	0.216	0.008
952.000	-0.952	1.000	0.000	0.324	0.008
953.000	-0.953	1.000	0.000	0.351	0.008
954.000	-0.954	1.000	0.000	0.425	0.008
955.000	-0.955	1.000	0.000	0.361	0.008
956.000	-0.956	1.000	0.000	0.428	0.008
957.000	-0.957	1.000	0.000	0.266	0.008
958.000	-0.958	1.000	0.000	0.238	0.008
959.000	-0.959	1.000	0.000	0.203	0.008
960.000	-0.960	1.000	0.000	0.246	0.008
961.000	-0.961	1.000	0.000	0.390	0.008
962.000	-0.962	1.000	0.000	0.215	0.008
963.000	-0.963	1.000	0.000	0.283	0.008
964.000	-0.964	1.000	0.000	0.415	0.008
965.000	-0.965	1.000	0.000	0.396	0.008
966.000	-0.966	1.000	0.000	0.371	0.008
967.000	-0.967	1.000	0.000	0.411	0.008
968.000	-0.968	1.000	0.000	0.362	0.008
969.000	-0.969	1.000	0.000	0.350	0.008
970.000	-0.970	1.000	0.000	0.249	0.008
971.000	-0.971	1.000	0.000	0.247	0.008
972.000	-0.972	1.000	0.000	0.309	0.008
973.000	-0.973	1.000	0.000	0.176	0.008
974.000	-0.974	1.000	0.000	0.171	0.008
975.000	-0.975	1.000	0.000	0.160	0.008
976.000	-0.976	1.000	0.000	0.162	0.008
977.000	-0.977	1.000	0.000	0.152	0.008
978.000	-0.978	1.000	0.000	0.097	0.008
979.000	-0.979	1.000	0.000	0.158	0.008
980.000	-0.980	1.000	0.000	0.108	0.008
981.000	-0.981	1.000	0.000	0.090	0.008
982.000	-0.982	1.000	0.000	0.174	0.008
983.000	-0.983	1.000	0.000	0.111	0.008
984.000	-0.984	1.000	0.000	0.060	0.008
985.000	-0.985	1.000	0.000	0.154	0.008
986.000	-0.986	1.000	0.000	0.063	0.008
987.000	-0.987	1.000	0.000	0.033	0.008
988.000	-0.988	1.000	0.000	0.058	0.008
989.000	-0.989	1.000	0.000	0.076	0.008
990.000	-0.990	1.000	0.000	0.108	0.008
991.000	-0.991	1.000	0.000	0.096	0.008
992.000	-0.992	1.000	0.000	0.106	0.008
993.000	-0.993	1.000	0.000	0.067	0.008
994.000	-0.994	1.000	0.000	0.049	0.008
995.000	-0.995	1.000	0.000	0.052	0.008
996.000	-0.996	1.000	0.000	0.089	0.008
997.000	-0.997	1.000	0.000	0.061	0.008
998.000	-0.998	1.000	0.000	0.052	0.008
999.000	-0.999	1.000	0.000	0.148	0.008
1000.000	-1.000	1.000	0.000	0.124	0.008
1001.000	-1.001	1.000	0.000	0.111	0.008
1002.000	-1.002	1.000	0.000	0.108	0.008
1003.000	-1.003	1.000	0.000	0.166	0.008
1004.000	-1.004	1.000	0.000	0.160	0.008
1005.000	-1.005	1.000	0.000	0.177	0.008
1006.000	-1.006	1.000	0.000	0.098	0.008
1007.000	-1.007	1.000	0.000	0.274	0.008
1008.000	-1.008	1.000	0.000	0.153	0.008
1009.000	-1.009	1.000	0.000	0.143	0.008
1010.000	-1.010	1.000	0.000	0.070	0.008
1011.000	-1.011	1.000	0.000	0.098	0.008
1012.000	-1.012	1.000	0.000	0.170	0.008
1013.000	-1.013	1.000	0.000	0.076	0.008
1014.000	-1.014	1.000	0.000	0.130	0.008
1015.000	-1.015	1.000	0.000	0.104	0.008
1016.000	-1.016	1.000	0.000	0.059	0.008
1017.000	-1.017	1.000	0.000	0.145	0.008
1018.000	-1.018	1.000	0.000	0.098	0.008
1019.000	-1.019	1.000	0.000	0.127	0.008
1020.000	-1.020	1.000	0.000	0.120	0.008
1021.000	-1.021	1.000	0.000	0.158	0.008
1022.000	-1.022	1.000	0.000	0.198	0.008
1023.000	-1.023	1.000	0.000	0.167	0.008
1024.000	-1.024	1.000	0.000	0.131	0.008
1025.000	-1.025	1.000	0.000	0.173	0.008
1026.000	-1.026	1.000	0.000	0.247	0.008
1027.000	-1.027	1.000	0.000	0.133	0.008
1028.000	-1.028	1.000	0.000	0.152	0.008
1029.000	-1.029	1.000	0.000	0.104	0.008
1030.000	-1.030	1.000	0.000	0.123	0.008
1031.000	-1.031	1.000	0.000	0.081	0.008
1032.000	-1.032	1.000	0.000	0.093	0.008
1033.000	-1.033	1.000	0.000	0.083	0.008
1034.000	-1.034	1.000	0.000	0.081	0.008
1035.000	-1.035	1.000	0.000	0.040	0.008
1036.000	-1.036	1.000	0.000	0.072	0.008
1037.000	-1.037	1.000	0.000	0.039	0.008
1038.000	-1.038	1.000	0.000	0.039	0.008
1039.000	-1.039	1.000	0.000	0.144	0.008
1040.000	-1.040	1.000	0.000	0.108	0.008
1041.000	-1.041	1.000	0.000	0.098	0.008
1042.000	-1.042	1.000	0.000	0.094	0.008
1043.000	-1.043	1.000	0.000	0.124	0.008
1044.000	-1.044	1.000	0.000	0.070	0.008
1045.000	-1.045	1.000	0.000	0.072	0.008
1046.000	-1.046	1.000	0.000	0.103	0.008
1047.000	-1.047	1.000	0.000	0.069	0.008
1048.000	-1.048	1.000	0.000	0.081	0.008
1049.000	-1.049	1.000	0.000	0.072	0.008
1050.000	-1.050	1.000	0.000	0.125	0.008
1051.000	-1.051	1.000	0.000	0.099	0.008
1052.000	-1.052	1.000	0.000	0.158	0.008
1053.000	-1.053	1.000	0.000	0.136	0.008
1054.000	-1.054	1.000	0.000	0.208	0.008
1055.000	-1.055	1.000	0.000	0.201	0.008
1056.000	-1.056	1.000	0.000	0.174	0.008
1057.000	-1.057	1.000	0.000	0.246	0.008
1058.000	-1.058	1.000	0.000	0.226	0.008
1059.000	-1.059	1.000	0.000	0.336	0.008
1060.000	-1.060	1.000	0.000	0.265	0.008
1061.000	-1.061	1.000	0.000	0.430	0.008
1062.000	-1.062	1.000	0.000	0.370	0.008
1063.000	-1.063	1.000	0.000	0.345	0.008
1064.000	-1.064	1.000	0.000	0.393	0.008
1065.000	-1.065	1.000	0.000	0.392	0.008
1066.000	-1.066	1.000	0.000	0.221	0.008
1067.000	-1.067	1.000	0.000	0.342	0.008
1068.000	-1.068	1.000	0.000	0.345	0.008
1069.000	-1.069	1.000	0.000	0.274	0.008
1070.000	-1.070	1.000	0.000	0.352	0.008
1071.000	-1.071	1.000	0.000	0.377	0.008
1072.000	-1.072	1.000	0.000	0.397	0.008
1073.000	-1.073	1.000	0.000	0.493	0.008
1074.000	-1.074	1.000	0.000	0.411	0.008
1075.000	-1.075	1.000	0.000	0.335	0.008
1076.000	-1.076	1.000	0.000	0.477	0.008
1077.000	-1.077	1.000	0.000	0.435	0.008
1078.000	-1.078	1.000	0.000	0.281	0.008
1079.000	-1.079	1.000	0.000	0.177	0.008
1080.000	-1.080	1.000	0.000	0.214	0.008
1081.000	-1.081	1.000	0.000	0.285	0.008
1082.000	-1.082	1.000	0.000	0.154	0.008
1083.000	-1.083	1.000	0.000	0.160	0.008
1084.000	-1.084	1.000	0.000	0.142	0.008
1085.000	-1.085	1.000	0.000	0.128	0.008
1086.000	-1.086	1.000	0.000	0.114	0.008
1087.000	-1.087	1.000	0.000	0.120	0.008
1088.000	-1.088	1.000	0.000	0.169	0.008
1089.000	-1.089	1.000	0.000	0.125	0.008
1090.000	-1.090	1.000	0.000	0.131	0.008
1091.000	-1.091	1.000	0.000	0.110	0.008
1092.000	-1.092	1.000	0.000	0.106	0.008
1093.000	-1.093	1.000	0.000	0.087	0.008
1094.000	-1.094	1.000	0.000	0.073	0.008
1095.000	-1.095	1.000	0.000	0.074	0.008
1096.000	-1.096	1.000	0.000	0.054	0.008
1097.000	-1.097	1.000	0.000	0.101	0.008
1098.000	-1.098	1.000	0.000	0.052	0.008
1099.000	-1.099	1.000	0.000	0.105	0.008
1100.000	-1.100	1.000	0.000	0.071	0.008
1101.000	-1.101	1.000	0.000	0.044	0.008
1102.000	-1.102	1.000	0.000	0.079	0.008
1103.000	-1.103	1.000	0.000	0.057	0.008
1104.000	-1.104	1.000	0.000	0.137	0.008
1105.000	-1.105	1.000	0.000	0.058	0.008
1106.000	-1.106	1.000	0.000	0.116	0.008
1107.000	-1.107	1.000	0.000	0.107	0.008
1108.000	-1.108	1.000	0.000	0.068	0.008
1109.000	-1.109	1.000	0.000	0.147	0.008
1110.000	-1.110	1.000	0.000	0.096	0.008
1111.000	-1.111	1.000	0.000	0.103	0.008
1112.000	-1.112	1.000	0.000	0.158	0.008
1113.000	-1.113	1.000	0.000	0.117	0.008
1114.000	-1.114	1.000	0.000	0.142	0.008
1115.000	-1.115	1.000	0.000	0.268	0.008
1116.000	-1.116	1.000	0.000	0.219	0.008
1117.000	-1.117	1.000	0.000	0.145	0.008
1118.000	-1.118	1.000	0.000	0.211	0.008
1119.000	-1.119	1.000	0.000	0.163	0.008
1120.000	-1.120	1.000	0.000	0.151	0.008
1121.000	-1.121	1.000	0.000	0.132	0.008
1122.000	-1.122	1.000	0.000	0.156	0.008
1123.000	-1.123	1.000	0.000	0.159	0.008
1124.000	-1.124	1.000	0.000	0.097	0.008
1125.000	-1.125	1.000	0.000	0.183	0.008
1126.000	-1.126	1.000	0.000	0.236	0.008
1127.000	-1.127	1.000	0.000	0.125	0.008
1128.000	-1.128	1.000	0.000	0.120	0.008
1129.000	-1.129	1.000	0.000	0.144	0.008
1130.000	-1.130	1.000	0.000	0.224	0.008
1131.000	-1.131	1.000	0.000	0.195	0.008
1132.000	-1.132	1.000	0.000	0.184	0.008
1133.000	-1.133	1.000	0.000	0.178	0.008
1134.000	-1.134	1.000	0.000	0.231	0.008
1135.000	-1.135	1.000	0.000	0.231	0.008
1136.000	-1.136	1.000	0.000	0.140	0.008
1137.000	-1.137	1.000	0.000	0.098	0.008
1138.000	-1.138	1.000	0.000	0.109	0.008
1139.000	-1.139	1.000	0.000	0.096	0.008
1140.000	-1.140	1.000	0.000	0.103	0.008
1141.000	-1.141	1.000	0.000	0.072	0.008
1142.000	-1.142	1.000	0.000	0.124	0.008
1143.000	-1.143	1.000	0.000	0.102	0.008
1144.000	-1.144	1.000	0.000	0.068	0.008
1145.000	-1.145	1.000	0.000	0.039	0.008
1146.000	-1.146	1.000	0.000	0.034	0.008
1147.000	-1.147	1.000	0.000	0.069	0.008
1148.000	-1.148	1.000	0.000	0.067	0.008
1149.000	-1.149	1.000	0.000	0.052	0.008
1150.000	-1.150	1.000	0.000	0.076	0.008
1151.000	-1.151	1.000	0.000	0.086	0.008
1152.000	-1.152	1.000	0.000	0.211	0.008
1153.000	-1.153	1.000	0.000	0.134	0.008
1154.000	-1.154	1.000	0.000	0.112	0.008
1155.000	-1.155	1.000	0.000	0.088	0.008
1156.000	-1.156	1.000	0.000	0.093	0.008
1157.000	-1.157	1.000	0.000	0.118	0.008
1158.000	-1.158	1.000	0.000	0.112	0.008
1159.000	-1.159	1.000	0.000	0.180	0.008
1160.000	-1.160	1.000	0.000	0.193	0.008
1161.000	-1.161	1.000	0.000	0.110	0.008
1162.000	-1.162	1.000	0.000	0.200	0.008
1163.000	-1.163	1.000	0.000	0.297	0.008
1164.000	-1.164	1.000	0.000	0.341	0.008
1165.000	-1.165	1.000	0.000	0.376	0.008
1166.000	-1.166	1.000	0.000	0.314	0.008
1167.000	-1.167	1.000	0.000	0.309	0.008
1168.000	-1.168	1.000	0.000	0.386	0.008
1169.000	-1.169	1.000	0.000	0.346	0.008
1170.000	-1.170	1.000	0.000	0.377	0.008
1171.000	-1.171	1.000	0.000	0.346	0.008
1172.000	-1.172	1.000	0.000	0.354	0.008
1173.000	-1.173	1.000	0.000	0.325	0.008
1174.000	-1.174	1.000	0.000	0.371	0.008
1175.000	-1.175	1.000	0.000	0.458	0.008
1176.000	-1.176	1.000	0.000	0.392	0.008
1177.000	-1.177	1.000	0.000	0.465	0.008
1178.000	-1.178	1.000	0.000	0.439	0.008
1179.000	-1.179	1.000	0.000	0.479	0.008
1180.000	-1.180	1.000	0.000	0.410	0.008
1181.000	-1.181	1.000	0.000	0.534	0.008
1182.000	-1.182	1.000	0.000	0.316	0.008
1183.000	-1.183	1.000	0.000	0.311	0.008
1184.000	-1.184	1.000	0.000	0.164	0.008
1185.000	-1.185	1.000	0.000	0.208	0.008
1186.000	-1.186	1.000	0.000	0.202	0.008
1187.000	-1.187	1.000	0.000	0.137	0.008
1188.000	-1.188	1.000	0.000	0.160	0.008
1189.000	-1.189	1.000	0.000	0.125	0.008
1190.000	-1.190	1.000	0.000	0.097	0.008
1191.000	-1.191	1.000	0.000	0.068	0.008
1192.000	-1.192	1.000	0.000	0.074	0.008
1193.000	-1.193	1.000	0.000	0.069	0.008
1194.000	-1.194	1.000	0.000	0.092	0.008
1195.000	-1.195	1.000	0.000	0.085	0.008
1196.000	-1.196	1.000	0.000	0.074	0.008
1197.000	-1.197	1.000	0.000	0.082	0.008
1198.000	-1.198	1.000	0.000	0.081	0.008
1199.000	-1.199	1.000	0.000	0.057	0.008
1200.000	-1.200	1.000	0.000	0.098	0.008
1201.000	-1.201	1.000	0.000	0.101	0.008
1202.000	-1.202	1.000	0.000	0.114	0.008
1203.000	-1.203	1.000	0.000	0.096	0.008
1204.000	-1.204	1.000	0.000	0.041	0.008
1205.000	-1.205	1.000	0.000	0.057	0.008
1206.000	-1.206	1.000	0.000	0.074	0.008
1207.000	-1.207	1.000	0.000	0.083	0.008
1208.000	-1.208	1.000	0.000	0.102	0.008
1209.000	-1.209	1.000	0.000	0.060	0.008
1210.000	-1.210	1.000	0.000	0.072	0.008
1211.000	-1.211	1.000	0.000	0.073	0.008
1212.000	-1.212	1.000	0.000	0.097	0.008
1213.000	-1.213	1.000	0.000	0.094	0.008
1214.000	-1.214	1.000	0.000	0.087	0.008
1215.000	-1.215	1.000	0.000	0.076	0.008
1216.000	-1.216	1.000	0.000	0.098	0.008
1217.000	-1.217	1.000	0.000	0.164	0.008
1218.000	-1.218	1.000	0.000	0.067	0.008
1219.000	-1.219	1.000	0.000	0.106	0.008
1220.000	-1.220	1.000	0.000	0.176	0.008
1221.000	-1.221	1.000	0.000	0.125	0.008
1222.000	-1.222	1.000	0.000	0.201	0.008
1223.000	-1.223	1.000	0.000	0.261	0.008
1224.000	-1.224	1.000	0.000	0.238	0.008
1225.000	-1.225	1.000	0.000	0.207	0.008
1226.000	-1.226	1.000	0.000	0.196	0.008
1227.000	-1.227	1.000	0.000	0.229	0.008
1228.000	-1.228	1.000	0.000	0.178	0.008
1229.000	-1.229	1.000	0.000	0.197	0.008
1230.000	-1.230	1.000	0.000	0.224	0.008
1231.000	-1.231	1.000	0.000	0.076	0.008
1232.000	-1.232	1.000	0.000	0.121	0.008
1233.000	-1.233	1.000	0.000	0.132	0.008
1234.000	-1.234	1.000	0.000	0.204	0.008
1235.000	-1.235	1.000	0.000	0.139	0.008
1236.000	-1.236	1.000	0.000	0.199	0.008
1237.000	-1.237	1.000	0.000	0.249	0.008
1238.000	-1.238	1.000	0.000	0.178	0.008
1239.000	-1.239	1.000	0.000	0.138	0.008
1240.000	-1.240	1.000	0.000	0.090	0.008
1241.000	-1.241	1.000	0.000	0.217	0.008
1242.000	-1.242	1.000	0.000	0.084	0.008
1243.000	-1.243	1.000	0.000	0.111	0.008
1244.000	-1.244	1.000	0.000	0.165	0.008
1245.000	-1.245	1.000	0.000	0.081	0.008
1246.000	-1.246	1.000	0.000	0.071	0.008
1247.000	-1.247	1.000	0.000	0.109	0.008
1248.000	-1.248	1.000	0.000	0.049	0.008
1249.000	-1.249	1.000	0.000	0.091	0.008
1250.000	-1.250	1.000	0.000	0.027	0.008
1251.000	-1.251	1.000	0.000	0.074	0.008
1252.000	-1.252	1.000	0.000	0.090	0.008
1253.000	-1.253	1.000	0.000	0.087	0.008
1254.000	-1.254	1.000	0.000	0.092	0.008
1255.000	-1.255	1.000	0.000	0.073	0.008
1256.000	-1.256	1.000	0.000	0.113	0.008
1257.000	-1.257	1.000	0.000	0.110	0.008
1258.000	-1.258	1.000	0.000	0.109	0.008
1259.000	-1.259	1.000	0.000	0.018	0.008
1260.000	-1.260	1.000	0.000	0.109	0.008
1261.000	-1.261	1.000	0.000	0.094	0.008
1262.000	-1.262	1.000	0.000	0.113	0.008
1263.000	-1.263	1.000	0.000	0.124	0.008
1264.000	-1.264	1.000	0.000	0.110	0.008
1265.000	-1.265	1.000	0.000	0.069	0.008
1266.000	-1.266	1.000	0.000	0.172	0.008
1267.000	-1.267	1.000	0.000	0.100	0.008
1268.000	-1.268	1.000	0.000	0.252	0.008
1269.000	-1.269	1.000	0.000	0.249	0.008
1270.000	-1.270	1.000	0.000	0.222	0.008
1271.000	-1.271	1.000	0.000	0.334	0.008
1272.000	-1.272	1.000	0.000	0.311	0.008
1273.000	-1.273	1.000	0.000	0.391	0.008
1274.000	-1.274	1.000	0.000	0.315	0.008
1275.000	-1.275	1.000	0.000	0.359	0.008
1276.000	-1.276	1.000	0.000	0.429	0.008
1277.000	-1.277	1.000	0.000	0.391	0.008
1278.000	-1.278	1.000	0.000	0.359	0.008
1279.000	-1.279	1.000	0.000	0.318	0.008
1280.000	-1.280	1.000	0.000	0.239	0.008
1281.000	-1.281	1.000	0.000	0.496	0.008
1282.000	-1.282	1.000	0.000	0.405	0.008
1283.000	-1.283	1.000	0.000	0.415	0.008
1284.000	-1.284	1.000	0.000	0.345	0.008
1285.000	-1.285	1.000	0.000	0.375	0.008
1286.000	-1.286	1.000	0.000	0.289	0.008
1287.000	-1.287	1.000	0.000	0.189	0.008
1288.000	-1.288	1.000	0.000	0.161	0.008
1289.000	-1.289	1.000	0.000	0.192	0.008
1290.000	-1.290	1.000	0.000	0.163	0.008
1291.000	-1.291	1.000	0.000	0.206	0.008
1292.000	-1.292	1.000	0.000	0.122	0.008
1293.000	-1.293	1.000	0.000	0.072	0.008
1294.000	-1.294	1.000	0.000	0.085	0.008
1295.000	-1.295	1.000	0.000	0.111	0.008
1296.000	-1.296	1.000	0.000	0.077	0.008
1297.000	-1.297	1.000	0.000	0.123	0.008
1298.000	-1.298	1.000	0.000	0.097	0.008
1299.000	-1.299	1.000	0.000	0.036	0.008
1300.000	-1.300	1.000	0.000	0.066	0.008
1301.000	-1.301	1.000	0.000	0.143	0.008
1302.000	-1.302	1.000	0.000	0.062	0.008
1303.000	-1.303	1.000	0.000	0.062	0.008
1304.000	-1.304	1.000	0.000	0.094	0.008
1305.000	-1.305	1.000	0.000	0.076	0.008
1306.000	-1.306	1.000	0.000	0.104	0.008
1307.000	-1.307	1.000	0.000	0.123	0.008
1308.000	-1.308	1.000	0.000	0.073	0.008
1309.000	-1.309	1.000	0.000	0.128	0.008
1310.000	-1.310	1.000	0.000	0.073	0.008
1311.000	-1.311	1.000	0.000	0.039	0.008
1312.000	-1.312	1.000	0.000	0.109	0.008
1313.000	-1.313	1.000	0.000	0.077	0.008
1314.000	-1.314	1.000	0.000	0.043	0.008
1315.000	-1.315	1.000	0.000	0.079	0.008
1316.000	-1.316	1.000	0.000	0.068	0.008
1317.000	-1.317	1.000	0.000	0.166	0.008
1318.000	-1.318	1.000	0.000	0.120	0.008
1319.000	-1.319	1.000	0.000	0.056	0.008
1320.000	-1.320	1.000	0.000	0.073	0.008
1321.000	-1.321	1.000	0.000	0.057	0.008
1322.000	-1.322	1.000	0.000	0.149	0.008
1323.000	-1.323	1.000	0.000	0.121	0.008
1324.000	-1.324	1.000	0.000	0.169	0.008
1325.000	-1.325	1.000	0.000	0.147	0.008
1326.000	-1.326	1.000	0.000	0.120	0.008
1327.000	-1.327	1.000	0.000	0.149	0.008
1328.000	-1.328	1.000	0.000	0.126	0.008
1329.000	-1.329	1.000	0.000	0.114	0.008
1330.000	-1.330	1.000	0.000	0.169	0.008
1331.000	-1.331	1.000	0.000	0.245	0.008
1332.000	-1.332	1.000	0.000	0.157	0.008
1333.000	-1.333	1.000	0.000	0.124	0.008
1334.000	-1.334	1.000	0.000	0.207	0.008
1335.000	-1.335	1.000	0.000	0.188	0.008
1336.000	-1.336	1.000	0.000	0.180	0.008
1337.000	-1.337	1.000	0.000	0.169	0.008
1338.000	-1.338	1.000	0.000	0.210	0.008
1339.000	-1.339	1.000	0.000	0.191	0.008
1340.000	-1.340	1.000	0.000	0.202	0.008
1341.000	-1.341	1.000	0.000	0.255	0.008
1342.000	-1.342	1.000	0.000	0.223	0.008
1343.000	-1.343	1.000	0.000	0.215	0.008
1344.000	-1.344	1.000	0.000	0.108	0.008
1345.000	-1.345	1.000	0.000	0.176	0.008
1346.000	-1.346	1.000	0.000	0.058	0.008
1347.000	-1.347	1.000	0.000	0.067	0.008
1348.000	-1.348	1.000	0.000	0.091	0.008
1349.000	-1.349	1.000	0.000	0.081	0.008
1350.000	-1.350	1.000	0.000	0.059	0.008
1351.000	-1.351	1.000	0.000	0.047	0.008
1352.000	-1.352	1.000	0.000	0.088	0.008
1353.000	-1.353	1.000	0.000	0.057	0.008
1354.000	-1.354	1.000	0.000	0.095	0.008
1355.000	-1.355	1.000	0.000	0.113	0.008
1356.000	-1.356	1.000	0.000	0.091	0.008
1357.000	-1.357	1.000	0.000	0.055	0.008
1358.000	-1.358	1.000	0.000	0.040	0.008
1359.000	-1.359	1.000	0.000	0.052	0.008
1360.000	-1.360	1.000	0.000	0.090	0.008
1361.000	-1.361	1.000	0.000	0.061	0.008
1362.000	-1.362	1.000	0.000	0.067	0.008
1363.000	-1.363	1.000	0.000	0.074	0.008
1364.000	-1.364	1.000	0.000	0.081	0.008
1365.000	-1.365	1.000	0.000	0.114	0.008
1366.000	-1.366	1.000	0.000	0.123	0.008
1367.000	-1.367	1.000	0.000	0.114	0.008
1368.000	-1.368	1.000	0.000	0.115	0.008
1369.000	-1.369	1.000	0.000	0.139	0.008
1370.000	-1.370	1.000	0.000	0.195	0.008
1371.000	-1.371	1.000	0.000	0.134	0.008
1372.000	-1.372	1.000	0.000	0.218	0.008
1373.000	-1.373	1.000	0.000	0.222	0.008
1374.000	-1.374	1.000	0.000	0.282	0.008
1375.000	-1.375	1.000	0.000	0.345	0.008
1376.000	-1.376	1.000	0.000	0.242	0.008
1377.000	-1.377	1.000	0.000	0.432	0.008
1378.000	-1.378	1.000	0.000	0.369	0.008
1379.000	-1.379	1.000	0.000	0.409	0.008
1380.000	-1.380	1.000	0.000	0.293	0.008
1381.000	-1.381	1.000	0.000	0.239	0.008
1382.000	-1.382	1.000	0.000	0.369	0.008
1383.000	-1.383	1.000	0.000	0.436	0.008
1384.000	-1.384	1.000	0.000	0.469	0.008
1385.000	-1.385	1.000	0.000	0.482	0.008
1386.000	-1.386	1.000	0.000	0.502	0.008
1387.000	-1.387	1.000	0.000	0.376	0.008
1388.000	-1.388	1.000	0.000	0.166	0.008
1389.000	-1.389	1.000	0.000	0.221	0.008
1390.000	-1.390	1.000	0.000	0.162	0.008
1391.000	-1.391	1.000	0.000	0.137	0.008
1392.000	-1.392	1.000	0.000	0.071	0.008
1393.000	-1.393	1.000	0.000	0.112	0.008
1394.000	-1.394	1.000	0.000	0.097	0.008
1395.000	-1.395	1.000	0.000	0.075	0.008
1396.000	-1.396	1.000	0.000	0.097	0.008
1397.000	-1.397	1.000	0.000	0.112	0.008
1398.000	-1.398	1.000	0.000	0.067	0.008
1399.000	-1.399	1.000	0.000	0.056	0.008
1400.000	-1.400	1.000	0.000	0.074	0.008
1401.000	-1.401	1.000	0.000	0.056	0.008
1402.000	-1.402	1.000	0.000	0.110	0.008
1403.000	-1.403	1.000	0.000	0.034	0.008
1404.000	-1.404	1.000	0.000	0.107	0.008
1405.000	-1.405	1.000	0.000	0.064	0.008
1406.000	-1.406	1.000	0.000	0.083	0.008
1407.000	-1.407	1.000	0.000	0.085	0.008
1408.000	-1.408	1.000	0.000	0.053	0.008
1409.000	-1.409	1.000	0.000	0.098	0.008
1410.000	-1.410	1.000	0.000	0.045	0.008
1411.000	-1.411	1.000	0.000	0.157	0.008
1412.000	-1.412	1.000	0.000	0.099	0.008
1413.000	-1.413	1.000	0.000	0.059	0.008
1414.000	-1.414	1.000	0.000	0.048	0.008
1415.000	-1.415	1.000	0.000	0.065	0.008
1416.000	-1.416	1.000	0.000	0.085	0.008
1417.000	-1.417	1.000	0.000	0.055	0.008
1418.000	-1.418	1.000	0.000	0.058	0.008
1419.000	-1.419	1.000	0.000	0.023	0.008
1420.000	-1.420	1.000	0.000	0.059	0.008
1421.000	-1.421	1.000	0.000	0.085	0.008
1422.000	-1.422	1.000	0.000	0.036	0.008
1423.000	-1.423	1.000	0.000	0.032	0.008
1424.000	-1.424	1.000	0.000	0.056	0.008
1425.000	-1.425	1.000	0.000	0.093	0.008
1426.000	-1.426	1.000	0.000	0.069	0.008
1427.000	-1.427	1.000	0.000	0.062	0.008
1428.000	-1.428	1.000	0.000	0.169	0.008
1429.000	-1.429	1.000	0.000	0.134	0.008
1430.000	-1.430	1.000	0.000	0.176	0.008
1431.000	-1.431	1.000	0.000	0.160	0.008
1432.000	-1.432	1.000	0.000	0.204	0.008
1433.000	-1.433	1.000	0.000	0.223	0.008
1434.000	-1.434	1.000	0.000	0.203	0.008
1435.000	-1.435	1.000	0.000	0.160	0.008
1436.000	-1.436	1.000	0.000	0.168	0.008
1437.000	-1.437	1.000	0.000	0.265	0.008
1438.000	-1.438	1.000	0.000	0.167	0.008
1439.000	-1.439	1.000	0.000	0.223	0.008
1440.000	-1.440	1.000	0.000	0.188	0.008
1441.000	-1.441	1.000	0.000	0.193	0.008
1442.000	-1.442	1.000	0.000	0.302	0.008
1443.000	-1.443	1.000	0.000	0.189	0.008
1444.000	-1.444	1.000	0.000	0.093	0.008
1445.000	-1.445	1.000	0.000	0.189	0.008
1446.000	-1.446	1.000	0.000	0.132	0.008
1447.000	-1.447	1.000	0.000	0.138	0.008
1448.000	-1.448	1.000	0.000	0.093	0.008
1449.000	-1.449	1.000	0.000	0.062	0.008
1450.000	-1.450	1.000	0.000	0.057	0.008
1451.000	-1.451	1.000	0.000	0.081	0.008
1452.000	-1.452	1.000	0.000	0.094	0.008
1453.000	-1.453	1.000	0.000	0.072	0.008
1454.000	-1.454	1.000	0.000	0.053	0.008
1455.000	-1.455	1.000	0.000	0.071	0.008
1456.000	-1.456	1.000	0.000	0.127	0.008
1457.000	-1.457	1.000	0.000	0.082	0.008
1458.000	-1.458	1.000	0.000	0.100	0.008
1459.000	-1.459	1.000	0.000	0.100	0.008
1460.000	-1.460	1.000	0.000	0.071	0.008
1461.000	-1.461	1.000	0.000	0.074	0.008
1462.000	-1.462	1.000	0.000	0.043	0.008
1463.000	-1.463	1.000	0.000	0.085	0.008
1464.000	-1.464	1.000	0.000	0.051	0.008
1465.000	-1.465	1.000	0.000	0.069	0.008
1466.000	-1.466	1.000	0.000	0.037	0.008
1467.000	-1.467	1.000	0.000	0.131	0.008
1468.000	-1.468	1.000	0.000	0.104	0.008
1469.000	-1.469	1.000	0.000	0.081	0.008
1470.000	-1.470	1.000	0.000	0.121	0.008
1471.000	-1.471	1.000	0.000	0.155	0.008
1472.000	-1.472	1.000	0.000	0.119	0.008
1473.000	-1.473	1.000	0.000	0.239	0.008
1474.000	-1.474	1.000	0.000	0.132	0.008
1475.000	-1.475	1.000	0.000	0.245	0.008
1476.000	-1.476	1.000	0.000	0.359	0.008
1477.000	-1.477	1.000	0.000	0.216	0.008
1478.000	-1.478	1.000	0.000	0.345	0.008
1479.000	-1.479	1.000	0.000	0.291	0.008
1480.000	-1.480	1.000	0.000	0.394	0.008
1481.000	-1.481	1.000	0.000	0.255	0.008
1482.000	-1.482	1.000	0.000	0.407	0.008
1483.000	-1.483	1.000	0.000	0.425	0.008
1484.000	-1.484	1.000	0.000	0.297	0.008
1485.000	-1.485	1.000	0.000	0.472	0.008
1486.000	-1.486	1.000	0.000	0.304	0.008
1487.000	-1.487	1.000	0.000	0.435	0.008
1488.000	-1.488	1.000	0.000	0.221	0.008
1489.000	-1.489	1.000	0.000	0.162	0.008
1490.000	-1.490	1.000	0.000	0.153	0.008
1491.000	-1.491	1.000	0.000	0.193	0.008
1492.000	-1.492	1.000	0.000	0.133	0.008
1493.000	-1.493	1.000	0.000	0.127	0.008
1494.000	-1.494	1.000	0.000	0.133	0.008
1495.000	-1.495	1.000	0.000	0.125	0.008
1496.000	-1.496	1.000	0.000	0.074	0.008
1497.000	-1.497	1.000	0.000	0.093	0.008
1498.000	-1.498	1.000	0.000	0.105	0.008
1499.000	-1.499	1.000	0.000	0.066	0.008
1500.000	-1.500	1.000	0.000	0.082	0.008
1501.000	-1.501	1.000	0.000	0.083	0.008
1502.000	-1.502	1.000	0.000	0.061	0.008
1503.000	-1.503	1.000	0.000	0.061	0.008
1504.000	-1.504	1.000	0.000	0.040	0.008
1505.000	-1.505	1.000	0.000	0.064	0.008
1506.000	-1.506	1.000	0.000	0.079	0.008
1507.000	-1.507	1.000	0.000	0.052	0.008
1508.000	-1.508	1.000	0.000	0.051	0.008
1509.000	-1.509	1.000	0.000	0.078	0.008
1510.000	-1.510	1.000	0.000	0.030	0.008
1511.000	-1.511	1.000	0.000	0.036	0.008
1512.000	-1.512	1.000	0.000	0.041	0.008
1513.000	-1.513	1.000	0.000	0.066	0.008
1514.000	-1.514	1.000	0.000	0.072	0.008
1515.000	-1.515	1.000	0.000	0.097	0.008
1516.000	-1.516	1.000	0.000	0.067	0.008
1517.000	-1.517	1.000	0.000	0.047	0.008
1518.000	-1.518	1.000	0.000	0.076	0.008
1519.000	-1.519	1.000	0.000	0.028	0.008
1520.000	-1.520	1.000	0.000	0.021	0.008
1521.000	-1.521	1.000	0.000	0.066	0.008
1522.000	-1.522	1.000	0.000	0.053	0.008
1523.000	-1.523	1.000	0.000	0.084	0.008
1524.000	-1.524	1.000	0.000	0.087	0.008
1525.000	-1.525	1.000	0.000	0.074	0.008
1526.000	-1.526	1.000	0.000	0.059	0.008
1527.000	-1.527	1.000	0.000	0.048	0.008
1528.000	-1.528	1.000	0.000	0.081	0.008
1529.000	-1.529	1.000	0.000	0.158	0.008
1530.000	-1.530	1.000	0.000	0.137	0.008
1531.000	-1.531	1.000	0.000	0.156	0.008
1532.000	-1.532	1.000	0.000	0.163	0.008
1533.000	-1.533	1.000	0.000	0.188	0.008
1534.000	-1.534	1.000	0.000	0.265	0.008
1535.000	-1.535	1.000	0.000	0.209	0.008
1536.000	-1.536	1.000	0.000	0.144	0.008
1537.000	-1.537	1.000	0.000	0.132	0.008
1538.000	-1.538	1.000	0.000	0.181	0.008
1539.000	-1.539	1.000	0.000	0.204	0.008
1540.000	-1.540	1.000	0.000	0.229	0.008
1541.000	-1.541	1.000	0.000	0.228	0.008
1542.000	-1.542	1.000	0.000	0.236	0.008
1543.000	-1.543	1.000	0.000	0.185	0.008
1544.000	-1.544	1.000	0.000	0.106	0.008
1545.000	-1.545	1.000	0.000	0.199	0.008
1546.000	-1.546	1.000	0.000	0.069	0.008
1547.000	-1.547	1.000	0.000	0.044	0.008
1548.000	-1.548	1.000	0.000	0.099	0.008
1549.000	-1.549	1.000	0.000	0.120	0.008
1550.000	-1.550	1.000	0.000	0.094	0.008
1551.000	-1.551	1.000	0.000	0.074	0.008
1552.000	-1.552	1.000	0.000	0.069	0.008
1553.000	-1.553	1.000	0.000	0.068	0.008
1554.000	-1.554	1.000	0.000	0.109	0.008
1555.000	-1.555	1.000	0.000	0.044	0.008
1556.000	-1.556	1.000	0.000	0.096	0.008
1557.000	-1.557	1.000	0.000	0.122	0.008
1558.000	-1.558	1.000	0.000	0.033	0.008
1559.000	-1.559	1.000	0.000	0.050	0.008
1560.000	-1.560	1.000	0.000	0.057	0.008
1561.000	-1.561	1.000	0.000	0.077	0.008
1562.000	-1.562	1.000	0.000	0.036	0.008
1563.000	-1.563	1.000	0.000	0.051	0.008
1564.000	-1.564	1.000	0.000	0.094	0.008
1565.000	-1.565	1.000	0.000	0.048	0.008
1566.000	-1.566	1.000	0.000	0.086	0.008
1567.000	-1.567	1.000	0.000	0.057	0.008
1568.000	-1.568	1.000	0.000	0.021	0.008
1569.000	-1.569	1.000	0.000	0.074	0.008
1570.000	-1.570	1.000	0.000	0.106	0.008
1571.000	-1.571	1.000	0.000	0.066	0.008
1572.000	-1.572	1.000	0.000	0.126	0.008
1573.000	-1.573	1.000	0.000	0.140	0.008
1574.000	-1.574	1.000	0.000	0.123	0.008
1575.000	-1.575	1.000	0.000	0.153	0.008
1576.000	-1.576	1.000	0.000	0.205	0.008
1577.000	-1.577	1.000	0.000	0.248	0.008
1578.000	-1.578	1.000	0.000	0.239	0.008
1579.000	-1.579	1.000	0.000	0.232	0.008
1580.000	-1.580	1.000	0.000	0.331	0.008
1581.000	-1.581	1.000	0.000	0.323	0.008
1582.000	-1.582	1.000	0.000	0.400	0.008
1583.000	-1.583	1.000	0.000	0.370	0.008
1584.000	-1.584	1.000	0.000	0.380	0.008
1585.000	-1.585	1.000	0.000	0.396	0.008
1586.000	-1.586	1.000	0.000	0.281	0.008
1587.000	-1.587	1.000	0.000	0.228	0.008
1588.000	-1.588	1.000	0.000	0.280	0.008
1589.000	-1.589	1.000	0.000	0.147	0.008
1590.000	-1.590	1.000	0.000	0.160	0.008
1591.000	-1.591	1.000	0.000	0.090	0.008
1592.000	-1.592	1.000	0.000	0.117	0.008
1593.000	-1.593	1.000	0.000	0.076	0.008
1594.000	-1.594	1.000	0.000	0.112	0.008
1595.000	-1.595	1.000	0.000	0.047	0.008
1596.000	-1.596	1.000	0.000	0.077	0.008
1597.000	-1.597	1.000	0.000	0.078	0.008
1598.000	-1.598	1.000	0.000	0.066	0.008
1599.000	-1.599	1.000	0.000	0.052	0.008
1600.000	-1.600	1.000	0.000	0.049	0.008
1601.000	-1.601	1.000	0.000	0.086	0.008
1602.000	-1.602	1.000	0.000	0.047	0.008
1603.000	-1.603	1.000	0.000	0.039	0.008
1604.000	-1.604	1.000	0.000	0.093	0.008
1605.000	-1.605	1.000	0.000	0.034	0.008
1606.000	-1.606	1.000	0.000	0.049	0.008
1607.000	-1.607	1.000	0.000	0.020	0.008
1608.000	-1.608	1.000	0.000	0.065	0.008
1609.000	-1.609	1.000	0.000	0.079	0.008
1610.000	-1.610	1.000	0.000	0.027	0.008
1611.000	-1.611	1.000	0.000	0.023	0.008
1612.000	-1.612	1.000	0.000	0.041	0.008
1613.000	-1.613	1.000	0.000	0.042	0.008
1614.000	-1.614	1.000	0.000	0.086	0.008
1615.000	-1.615	1.000	0.000	0.060	0.008
1616.000	-1.616	1.000	0.000	0.055	0.008
1617.000	-1.617	1.000	0.000	0.034	0.008
1618.000	-1.618	1.000	0.000	0.041	0.008
1619.000	-1.619	1.000	0.000	0.098	0.008
1620.000	-1.620	1.000	0.000	0.081	0.008
1621.000	-1.621	1.000	0.000	0.057	0.008
1622.000	-1.622	1.000	0.000	0.040	0.008
1623.000	-1.623	1.000	0.000	0.035	0.008
1624.000	-1.624	1.000	0.000	0.058	0.008
1625.000	-1.625	1.000	0.000	0.004	0.008
1626.000	-1.626	1.000	0.000	0.079	0.008
1627.000	-1.627	1.000	0.000	0.084	0.008
1628.000	-1.628	1.000	0.000	0.048	0.008
1629.000	-1.629	1.000	0.000	0.058	0.008
1630.000	-1.630	1.000	0.000	0.101	0.008
1631.000	-1.631	1.000	0.000	0.071	0.008
1632.000	-1.632	1.000	0.000	0.181	0.008
1633.000	-1.633	1.000	0.000	0.165	0.008
1634.000	-1.634	1.000	0.000	0.169	0.008
1635.000	-1.635	1.000	0.000	0.180	0.008
1636.000	-1.636	1.000	0.000	0.195	0.008
1637.000	-1.637	1.000	0.000	0.156	0.008
1638.000	-1.638	1.000	0.000	0.265	0.008
1639.000	-1.639	1.000	0.000	0.236	0.008
1640.000	-1.640	1.000	0.000	0.249	0.008
1641.000	-1.641	1.000	0.000	0.124	0.008
1642.000	-1.642	1.000	0.000	0.150	0.008
1643.000	-1.643	1.000	0.000	0.142	0.008
1644.000	-1.644	1.000	0.000	0.104	0.008
1645.000	-1.645	1.000	0.000	0.156	0.008
1646.000	-1.646	1.000	0.000	0.104	0.008
1647.000	-1.647	1.000	0.000	0.106	0.008
1648.000	-1.648	1.000	0.000	0.064	0.008
1649.000	-1.649	1.000	0.000	0.079	0.008
1650.000	-1.650	1.000	0.000	0.064	0.008
1651.000	-1.651	1.000	0.000	0.071	0.008
1652.000	-1.652	1.000	0.000	0.075	0.008
1653.000	-1.653	1.000	0.000	0.022	0.008
1654.000	-1.654	1.000	0.000	0.058	0.008
1655.000	-1.655	1.000	0.000	0.072	0.008
1656.000	-1.656	1.000	0.000	0.053	0.008
1657.000	-1.657	1.000	0.000	0.066	0.008
1658.000	-1.658	1.000	0.000	0.056	0.008
1659.000	-1.659	1.000	0.000	0.043	0.008
1660.000	-1.660	1.000	0.000	0.078	0.008
1661.000	-1.661	1.000	0.000	0.016	0.008
1662.000	-1.662	1.000	0.000	0.068	0.008
1663.000	-1.663	1.000	0.000	0.075	0.008
1664.000	-1.664	1.000	0.000	0.093	0.008
1665.000	-1.665	1.000	0.000	0.055	0.008
1666.000	-1.666	1.000	0.000	0.095	0.008
1667.000	-1.667	1.000	0.000	0.054	0.008
1668.000	-1.668	1.000	0.000	0.091	0.008
1669.000	-1.669	1.000	0.000	0.068	0.008
1670.000	-1.670	1.000	0.000	0.084	0.008
1671.000	-1.671	1.000	0.000	0.109	0.008
1672.000	-1.672	1.000	0.000	0.067	0.008
1673.000	-1.673	1.000	0.000	0.097	0.008
1674.000	-1.674	1.000	0.000	0.123	0.008
1675.000	-1.675	1.000	0.000	0.187	0.008
1676.000	-1.676	1.000	0.000	0.178	0.008
1677.000	-1.677	1.000	0.000	0.216	0.008
1678.000	-1.678	1.000	0.000	0.299	0.008
1679.000	-1.679	1.000	0.000	0.335	0.008
1680.000	-1.680	1.000	0.000	0.308	0.008
1681.000	-1.681	1.000	0.000	0.225	0.008
1682.000	-1.682	1.000	0.000	0.271	0.008
1683.000	-1.683	1.000	0.000	0.412	0.008
1684.000	-1.684	1.000	0.000	0.274	0.008
1685.000	-1.685	1.000	0.000	0.313	0.008
1686.000	-1.686	1.000	0.000	0.329	0.008
1687.000	-1.687	1.000	0.000	0.218	0.008
1688.000	-1.688	1.000	0.000	0.161	0.008
1689.000	-1.689	1.000	0.000	0.136	0.008
1690.000	-1.690	1.000	0.000	0.168	0.008
1691.000	-1.691	1.000	0.000	0.128	0.008
1692.000	-1.692	1.000	0.000	0.082	0.008
1693.000	-1.693	1.000	0.000	0.151	0.008
1694.000	-1.694	1.000	0.000	0.083	0.008
1695.000	-1.695	1.000	0.000	0.047	0.008
1696.000	-1.696	1.000	0.000	0.105	0.008
1697.000	-1.697	1.000	0.000	0.078	0.008
1698.000	-1.698	1.000	0.000	0.112	0.008
1699.000	-1.699	1.000	0.000	0.047	0.008
1700.000	-1.700	1.000	0.000	0.070	0.008
1701.000	-1.701	1.000	0.000	0.139	0.008
1702.000	-1.702	1.000	0.000	0.044	0.008
1703.000	-1.703	1.000	0.000	0.047	0.008
1704.000	-1.704	1.000	0.000	0.038	0.008
1705.000	-1.705	1.000	0.000	0.108	0.008
1706.000	-1.706	1.000	0.000	0.054	0.008
1707.000	-1.707	1.000	0.000	0.122	0.008
1708.000	-1.708	1.000	0.000	0.080	0.008
1709.000	-1.709	1.000	0.000	0.093	0.008
1710.000	-1.710	1.000	0.000	0.038	0.008
1711.000	-1.711	1.000	0.000	0.071	0.008
1712.000	-1.712	1.000	0.000	0.058	0.008
1713.000	-1.713	1.000	0.000	0.062	0.008
1714.000	-1.714	1.000	0.000	0.047	0.008
1715.000	-1.715	1.000	0.000	0.035	0.008
1716.000	-1.716	1.000	0.000	0.060	0.008
1717.000	-1.717	1.000	0.000	0.076	0.008
1718.000	-1.718	1.000	0.000	0.064	0.008
1719.000	-1.719	1.000	0.000	0.034	0.008
1720.000	-1.720	1.000	0.000	0.049	0.008
1721.000	-1.721	1.000	0.000	0.033	0.008
1722.000	-1.722	1.000	0.000	0.066	0.008
1723.000	-1.723	1.000	0.000	0.038	0.008
1724.000	-1.724	1.000	0.000	0.080	0.008
1725.000	-1.725	1.000	0.000	0.056	0.008
1726.000	-1.726	1.000	0.000	0.043	0.008
1727.000	-1.727	1.000	0.000	0.061	0.008
1728.000	-1.728	1.000	0.000	0.071	0.008
1729.000	-1.729	1.000	0.000	0.131	0.008
1730.000	-1.730	1.000	0.000	0.102	0.008
1731.000	-1.731	1.000	0.000	0.183	0.008
1732.000	-1.732	1.000	0.000	0.151	0.008
1733.000	-1.733	1.000	0.000	0.175	0.008
1734.000	-1.734	1.000	0.000	0.138	0.008
1735.000	-1.735	1.000	0.000	0.119	0.008
1736.000	-1.736	1.000	0.000	0.264	0.008
1737.000	-1.737	1.000	0.000	0.162	0.008
1738.000	-1.738	1.000	0.000	0.158	0.008
1739.000	-1.739	1.000	0.000	0.187	0.008
1740.000	-1.740	1.000	0.000	0.250	0.008
1741.000	-1.741	1.000	0.000	0.128	0.008
1742.000	-1.742	1.000	0.000	0.063	0.008
1743.000	-1.743	1.000	0.000	0.103	0.008
1744.000	-1.744	1.000	0.000	0.076	0.008
1745.000	-1.745	1.000	0.000	0.087	0.008
1746.000	-1.746	1.000	0.000	0.123	0.008
1747.000	-1.747	1.000	0.000	0.078	0.008
1748.000	-1.748	1.000	0.000	0.031	0.008
1749.000	-1.749	1.000	0.000	0.125	0.008
1750.000	-1.750	1.000	0.000	0.058	0.008
1751.000	-1.751	1.000	0.000	0.053	0.008
1752.000	-1.752	1.000	0.000	0.080	0.008
1753.000	-1.753	1.000	0.000	0.014	0.008
1754.000	-1.754	1.000	0.000	0.049	0.008
1755.000	-1.755	1.000	0.000	0.052	0.008
1756.000	-1.756	1.000	0.000	0.058	0.008
1757.000	-1.757	1.000	0.000	0.040	0.008
1758.000	-1.758	1.000	0.000	0.077	0.008
1759.000	-1.759	1.000	0.000	0.052	0.008
1760.000	-1.760	1.000	0.000	0.051	0.008
1761.000	-1.761	1.000	0.000	0.047	0.008
1762.000	-1.762	1.000	0.000	0.094	0.008
1763.000	-1.763	1.000	0.000	0.025	0.008
1764.000	-1.764	1.000	0.000	0.081	0.008
1765.000	-1.765	1.000	0.000	0.069	0.008
1766.000	-1.766	1.000	0.000	0.096	0.008
1767.000	-1.767	1.000	0.000	0.057	0.008
1768.000	-1.768	1.000	0.000	0.069	0.008
1769.000	-1.769	1.000	0.000	0.067	0.008
1770.000	-1.770	1.000	0.000	0.053	0.008
1771.000	-1.771	1.000	0.000	0.093	0.008
1772.000	-1.772	1.000	0.000	0.075	0.008
1773.000	-1.773	1.000	0.000	0.118	0.008
1774.000	-1.774	1.000	0.000	0.178	0.008
1775.000	-1.775	1.000	0.000	0.098	0.008
1776.000	-1.776	1.000	0.000	0.250	0.008
1777.000	-1.777	1.000	0.000	0.208	0.008
1778.000	-1.778	1.000	0.000	0.258	0.008
1779.000	-1.779	1.000	0.000	0.243	0.008
1780.000	-1.780	1.000	0.000	0.285	0.008
1781.000	-1.781	1.000	0.000	0.198	0.008
1782.000	-1.782	1.000	0.000	0.290	0.008
1783.000	-1.783	1.000	0.000	0.200	0.008
1784.000	-1.784	1.000	0.000	0.213	0.008
1785.000	-1.785	1.000	0.000	0.200	0.008
1786.000	-1.786	1.000	0.000	0.082	0.008
1787.000	-1.787	1.000	0.000	0.103	0.008
1788.000	-1.788	1.000	0.000	0.063	0.008
1789.000	-1.789	1.000	0.000	0.092	0.008
1790.000	-1.790	1.000	0.000	0.061	0.008
1791.000	-1.791	1.000	0.000	0.074	0.008
1792.000	-1.792	1.000	0.000	0.054	0.008
1793.000	-1.793	1.000	0.000	0.133	0.008
1794.000	-1.794	1.000	0.000	0.050	0.008
1795.000	-1.795	1.000	0.000	0.106	0.008
1796.000	-1.796	1.000	0.000	0.104	0.008
1797.000	-1.797	1.000	0.000	0.064	0.008
1798.000	-1.798	1.000	0.000	0.053	0.008
1799.000	-1.799	1.000	0.000	0.072	0.008
1800.000	-1.800	1.000	0.000	0.091	0.008
1801.000	-1.801	1.000	0.000	0.102	0.008
1802.000	-1.802	1.000	0.000	0.065	0.008
1803.000	-1.803	1.000	0.000	0.043	0.008
1804.000	-1.804	1.000	0.000	0.033	0.008
1805.000	-1.805	1.000	0.000	0.035	0.008
1806.000	-1.806	1.000	0.000	0.049	0.008
1807.000	-1.807	1.000	0.000	0.053	0.008
1808.000	-1.808	1.000	0.000	0.060	0.008
1809.000	-1.809	1.000	0.000	0.060	0.008
1810.000	-1.810	1.000	0.000	0.087	0.008
1811.000	-1.811	1.000	0.000	0.064	0.008
1812.000	-1.812	1.000	0.000	0.037	0.008
1813.000	-1.813	1.000	0.000	0.032	0.008
1814.000	-1.814	1.000	0.000	0.064	0.008
1815.000	-1.815	1.000	0.000	0.066	0.008
1816.000	-1.816	1.000	0.000	0.034	0.008
1817.000	-1.817	1.000	0.000	0.053	0.008
1818.000	-1.818	1.000	0.000	0.040	0.008
1819.000	-1.819	1.000	0.000	0.042	0.008
1820.000	-1.820	1.000	0.000	0.030	0.008
1821.000	-1.821	1.000	0.000	0.032	0.008
1822.000	-1.822	1.000	0.000	0.096	0.008
1823.000	-1.823	1.000	0.000	0.029	0.008
1824.000	-1.824	1.000	0.000	0.067	0.008
1825.000	-1.825	1.000	0.000	0.040	0.008
1826.000	-1.826	1.000	0.000	0.053	0.008
1827.000	-1.827	1.000	0.000	0.060	0.008
1828.000	-1.828	1.000	0.000	0.045	0.008
1829.000	-1.829	1.000	0.000	0.108	0.008
1830.000	-1.830	1.000	0.000	0.122	0.008
1831.000	-1.831	1.000	0.000	0.141	0.008
1832.000	-1.832	1.000	0.000	0.144	0.008
1833.000	-1.833	1.000	0.000	0.178	0.008
1834.000	-1.834	1.000	0.000	0.166	0.008
1835.000	-1.835	1.000	0.000	0.192	0.008
1836.000	-1.836	1.000	0.000	0.164	0.008
1837.000	-1.837	1.000	0.000	0.204	0.008
1838.000	-1.838	1.000	0.000	0.192	0.008
1839.000	-1.839	1.000	0.000	0.084	0.008
1840.000	-1.840	1.000	0.000	0.062	0.008
1841.000	-1.841	1.000	0.000	0.076	0.008
1842.000	-1.842	1.000	0.000	0.037	0.008
1843.000	-1.843	1.000	0.000	0.075	0.008
1844.000	-1.844	1.000	0.000	0.042	0.008
1845.000	-1.845	1.000	0.000	0.052	0.008
1846.000	-1.846	1.000	0.000	0.078	0.008
1847.000	-1.847	1.000	0.000	0.038	0.008
1848.000	-1.848	1.000	0.000	0.029	0.008
1849.000	-1.849	1.000	0.000	0.049	0.008
1850.000	-1.850	1.000	0.000	0.041	0.008
1851.000	-1.851	1.000	0.000	0.054	0.008
1852.000	-1.852	1.000	0.000	0.042	0.008
1853.000	-1.853	1.000	0.000	0.071	0.008
1854.000	-1.854	1.000	0.000	0.053	0.008
1855.000	-1.855	1.000	0.000	0.101	0.008
1856.000	-1.856	1.000	0.000	0.071	0.008
1857.000	-1.857	1.000	0.000	0.037	0.008
1858.000	-1.858	1.000	0.000	0.066	0.008
1859.000	-1.859	1.000	0.000	0.064	0.008
1860.000	-1.860	1.000	0.000	0.041	0.008
1861.000	-1.861	1.000	0.000	0.037	0.008
1862.000	-1.862	1.000	0.000	0.035	0.008
1863.000	-1.863	1.000	0.000	0.027	0.008
1864.000	-1.864	1.000	0.000	0.027	0.008
1865.000	-1.865	1.000	0.000	0.012	0.008
1866.000	-1.866	1.000	0.000	0.024	0.008
1867.000	-1.867	1.000	0.000	0.054	0.008
1868.000	-1.868	1.000	0.000	0.047	0.008
1869.000	-1.869	1.000	0.000	0.058	0.008
1870.000	-1.870	1.000	0.000	0.025	0.008
1871.000	-1.871	1.000	0.000	0.080	0.008
1872.000	-1.872	1.000	0.000	0.082	0.008
1873.000	-1.873	1.000	0.000	0.122	0.008
1874.000	-1.874	1.000	0.000	0.153	0.008
1875.000	-1.875	1.000	0.000	0.191	0.008
1876.000	-1.876	1.000	0.000	0.151	0.008
1877.000	-1.877	1.000	0.000	0.175	0.008
1878.000	-1.878	1.000	0.000	0.171	0.008
1879.000	-1.879	1.000	0.000	0.225	0.008
1880.000	-1.880	1.000	0.000	0.201	0.008
1881.000	-1.881	1.000	0.000	0.151	0.008
1882.000	-1.882	1.000	0.000	0.137	0.008
1883.000	-1.883	1.000	0.000	0.088	0.008
1884.000	-1.884	1.000	0.000	0.077	0.008
1885.000	-1.885	1.000	0.000	0.064	0.008
1886.000	-1.886	1.000	0.000	0.070	0.008
1887.000	-1.887	1.000	0.000	0.044	0.008
1888.000	-1.888	1.000	0.000	0.012	0.008
1889.000	-1.889	1.000	0.000	0.050	0.008
1890.000	-1.890	1.000	0.000	0.037	0.008
1891.000	-1.891	1.000	0.000	0.047	0.008
1892.000	-1.892	1.000	0.000	0.052	0.008
1893.000	-1.893	1.000	0.000	0.016	0.008
1894.000	-1.894	1.000	0.000	0.017	0.008
1895.000	-1.895	1.000	0.000	0.044	0.008
1896.000	-1.896	1.000	0.000	0.051	0.008
1897.000	-1.897	1.000	0.000	0.025	0.008
1898.000	-1.898	1.000	0.000	0.056	0.008
1899.000	-1.899	1.000	0.000	0.027	0.008
1900.000	-1.900	1.000	0.000	-0.003	0.008
1901.000	-1.901	1.000	0.000	0.019	0.008
1902.000	-1.902	1.000	0.000	0.051	0.008
1903.000	-1.903	1.000	0.000	0.038	0.008
1904.000	-1.904	1.000	0.000	0.025	0.008
1905.000	-1.905	1.000	0.000	0.045	0.008
1906.000	-1.906	1.000	0.000	0.036	0.008
1907.000	-1.907	1.000	0.000	0.043	0.008
1908.000	-1.908	1.000	0.000	0.088	0.008
1909.000	-1.909	1.000	0.000	0.033	0.008
1910.000	-1.910	1.000	0.000	0.029	0.008
1911.000	-1.911	1.000	0.000	0.046	0.008
1912.000	-1.912	1.000	0.000	0.031	0.008
1913.000	-1.913	1.000	0.000	0.060	0.008
1914.000	-1.914	1.000	0.000	0.052	0.008
1915.000	-1.915	1.000	0.000	0.095	0.008
1916.000	-1.916	1.000	0.000	-0.010	0.008
1917.000	-1.917	1.000	0.000	-0.005	0.008
1918.000	-1.918	1.000	0.000	0.036	0.008
1919.000	-1.919	1.000	0.000	0.027	0.008
1920.000	-1.920	1.000	0.000	0.040	0.008
1921.000	-1.921	1.000	0.000	0.035	0.008
1922.000	-1.922	1.000	0.000	0.076	0.008
1923.000	-1.923	1.000	0.000	0.056	0.008
1924.000	-1.924	1.000	0.000	0.041	0.008
1925.000	-1.925	1.000	0.000	0.090	0.008
1926.000	-1.926	1.000	0.000	0.044	0.008
1927.000	-1.927	1.000	0.000	0.023	0.008
1928.000	-1.928	1.000	0.000	0.077	0.008
1929.000	-1.929	1.000	0.000	0.155	0.008
1930.000	-1.930	1.000	0.000	0.179	0.008
1931.000	-1.931	1.000	0.000	0.131	0.008
1932.000	-1.932	1.000	0.000	0.170	0.008
1933.000	-1.933	1.000	0.000	0.120	0.008
1934.000	-1.934	1.000	0.000	0.116	0.008
1935.000	-1.935	1.000	0.000	0.093	0.008
1936.000	-1.936	1.000	0.000	0.098	0.008
1937.000	-1.937	1.000	0.000	0.082	0.008
1938.000	-1.938	1.000	0.000	0.050	0.008
1939.000	-1.939	1.000	0.000	0.027	0.008
1940.000	-1.940	1.000	0.000	0.035	0.008
1941.000	-1.941	1.000	0.000	0.031	0.008
1942.000	-1.942	1.000	0.000	0.008	0.008
1943.000	-1.943	1.000	0.000	0.014	0.008
1944.000	-1.944	1.000	0.000	0.003	0.008
1945.000	-1.945	1.000	0.000	0.042	0.008
1946.000	-1.946	1.000	0.000	0.049	0.008
1947.000	-1.947	1.000	0.000	-0.002	0.008
1948.000	-1.948	1.000	0.000	0.015	0.008
1949.000	-1.949	1.000	0.000	0.024	0.008
1950.000	-1.950	1.000	0.000	0.063	0.008
1951.000	-1.951	1.000	0.000	0.057	0.008
1952.000	-1.952	1.000	0.000	0.079	0.008
1953.000	-1.953	1.000	0.000	0.020	0.008
1954.000	-1.954	1.000	0.000	0.008	0.008
1955.000	-1.955	1.000	0.000	0.017	0.008
1956.000	-1.956	1.000	0.000	0.014	0.008
1957.000	-1.957	1.000	0.000	0.058	0.008
1958.000	-1.958	1.000	0.000	0.018	0.008
1959.000	-1.959	1.000	0.000	0.017	0.008
1960.000	-1.960	1.000	0.000	0.007	0.008
1961.000	-1.961	1.000	0.000	0.008	0.008
1962.000	-1.962	1.000	0.000	0.054	0.008
1963.000	-1.963	1.000	0.000	0.052	0.008
1964.000	-1.964	1.000	0.000	0.020	0.008
1965.000	-1.965	1.000	0.000	0.013	0.008
1966.000	-1.966	1.000	0.000	0.008	0.008
1967.000	-1.967	1.000	0.000	0.032	0.008
1968.000	-1.968	1.000	0.000	0.039	0.008
1969.000	-1.969	1.000	0.000	0.021	0.008
1970.000	-1.970	1.000	0.000	0.016	0.008
1971.000	-1.971	1.000	0.000	-0.005	0.008
1972.000	-1.972	1.000	0.000	0.091	0.008
1973.000	-1.973	1.000	0.000	0.040	0.008
1974.000	-1.974	1.000	0.000	0.080	0.008
1975.000	-1.975	1.000	0.000	0.090	0.008
1976.000	-1.976	1.000	0.000	0.063	0.008
1977.000	-1.977	1.000	0.000	0.081	0.008
1978.000	-1.978	1.000	0.000	0.151	0.008
1979.000	-1.979	1.000	0.000	0.077	0.008
1980.000	-1.980	1.000	0.000	0.045	0.008
1981.000	-1.981	1.000	0.000	0.041	0.008
1982.000	-1.982	1.000	0.000	0.006	0.008
1983.000	-1.983	1.000	0.000	0.013	0.008
1984.000	-1.984	1.000	0.000	0.012	0.008
1985.000	-1.985	1.000	0.000	0.040	0.008
1986.000	-1.986	1.000	0.000	0.046	0.008
1987.000	-1.987	1.000	0.000	0.007	0.008
1988.000	-1.988	1.000	0.000	0.037	0.008
1989.000	-1.989	1.000	0.000	0.019	0.008
1990.000	-1.990	1.000	0.000	0.017	0.008
1991.000	-1.991	1.000	0.000	0.005	0.008
1992.000	-1.992	1.000	0.000	0.022	0.008
1993.000	-1.993	1.000	0.000	0.042	0.008
1994.000	-1.994	1.000	0.000	0.083	0.008
1995.000	-1.995	1.000	0.000	0.060	0.008
1996.000	-1.996	1.000	0.000	0.062	0.008
1997.000	-1.997	1.000	0.000	0.047	0.008
1998.000	-1.998	1.000	0.000	0.033	0.008
1999.000	-1.999	1.000	0.000	0.041	0.008
2000.000	-2.000	1.000	0.000	0.051	0.008
2001.000	-2.001	1.000	0.000	0.030	0.008
2002.000	-2.002	1.000	0.000	0.039	0.008
2003.000	-2.003	1.000	0.000	0.028	0.008
2004.000	-2.004	1.000	0.000	0.025	0.008
2005.000	-2.005	1.000	0.000	0.079	0.008
2006.000	-2.006	1.000	0.000	0.058	0.008
2007.000	-2.007	1.000	0.000	0.047	0.008
2008.000	-2.008	1.000	0.000	0.036	0.008
2009.000	-2.009	1.000	0.000	0.039	0.008
2010.000	-2.010	1.000	0.000	0.014	0.008
2011.000	-2.011	1.000	0.000	0.023	0.008
2012.000	-2.012	1.000	0.000	0.043	0.008
2013.000	-2.013	1.000	0.000	0.018	0.008
2014.000	-2.014	1.000	0.000	0.012	0.008
2015.000	-2.015	1.000	0.000	0.005	0.008
2016.000	-2.016	1.000	0.000	0.022	0.008
2017.000	-2.017	1.000	0.000	0.028	0.008
2018.000	-2.018	1.000	0.000	0.035	0.008
2019.000	-2.019	1.000	0.000	0.034	0.008
2020.000	-2.020	1.000	0.000	0.034	0.008
2021.000	-2.021	1.000	0.000	0.010	0.008
2022.000	-2.022	1.000	0.000	0.028	0.008
2023.000	-2.023	1.000	0.000	0.005	0.008
2024.000	-2.024	1.000	0.000	0.045	0.008
2025.000	-2.025	1.000	0.000	0.069	0.008
2026.000	-2.026	1.000	0.000	0.030	0.008
2027.000	-2.027	1.000	0.000	0.101	0.008
2028.000	-2.028	1.000	0.000	0.115	0.008
2029.000	-2.029	1.000	0.000	0.100	0.008
2030.000	-2.030	1.000	0.000	0.093	0.008
2031.000	-2.031	1.000	0.000	0.109	0.008
2032.000	-2.032	1.000	0.000	0.118	0.008
2033.000	-2.033	1.000	0.000	0.045	0.008
2034.000	-2.034	1.000	0.000	0.011	0.008
2035.000	-2.035	1.000	0.000	0.043	0.008
2036.000	-2.036	1.000	0.000	0.052	0.008
2037.000	-2.037	1.000	0.000	0.017	0.008
2038.000	-2.038	1.000	0.000	0.021	0.008
2039.000	-2.039	1.000	0.000	0.046	0.008
2040.000	-2.040	1.000	0.000	0.009	0.008
2041.000	-2.041	1.000	0.000	0.028	0.008
2042.000	-2.042	1.000	0.000	0.026	0.008
2043.000	-2.043	1.000	0.000	0.044	0.008
2044.000	-2.044	1.000	0.000	0.030	0.008
2045.000	-2.045	1.000	0.000	0.069	0.008
2046.000	-2.046	1.000	0.000	0.007	0.008
2047.000	-2.047	1.000	0.000	0.042	0.008
2048.000	-2.048	1.000	0.000	0.024	0.008
2049.000	-2.049	1.000	0.000	0.030	0.008
2050.000	-2.050	1.000	0.000	0.031	0.008
2051.000	-2.051	1.000	0.000	0.063	0.008
2052.000	-2.052	1.000	0.000	0.037	0.008
2053.000	-2.053	1.000	0.000	0.044	0.008
2054.000	-2.054	1.000	0.000	0.006	0.008
2055.000	-2.055	1.000	0.000	0.002	0.008
2056.000	-2.056	1.000	0.000	0.013	0.008
2057.000	-2.057	1.000	0.000	0.020	0.008
2058.000	-2.058	1.000	0.000	0.031	0.008
2059.000	-2.059	1.000	0.000	0.001	0.008
2060.000	-2.060	1.000	0.000	0.011	0.008
2061.000	-2.061	1.000	0.000	0.008	0.008
2062.000	-2.062	1.000	0.000	0.012	0.008
2063.000	-2.063	1.000	0.000	0.027	0.008
2064.000	-2.064	1.000	0.000	0.080	0.008
2065.000	-2.065	1.000	0.000	0.002	0.008
2066.000	-2.066	1.000	0.000	0.029	0.008
2067.000	-2.067	1.000	0.000	0.019	0.008
2068.000	-2.068	1.000	0.000	0.042	0.008
2069.000	-2.069	1.000	0.000	0.003	0.008
2070.000	-2.070	1.000	0.000	0.045	0.008
2071.000	-2.071	1.000	0.000	0.032	0.008
2072.000	-2.072	1.000	0.000	0.051	0.008
2073.000	-2.073	1.000	0.000	0.025	0.008
2074.000	-2.074	1.000	0.000	0.057	0.008
2075.000	-2.075	1.000	0.000	0.014	0.008
2076.000	-2.076	1.000	0.000	0.011	0.008
2077.000	-2.077	1.000	0.000	0.050	0.008
2078.000	-2.078	1.000	0.000	0.027	0.008
2079.000	-2.079	1.000	0.000	0.030	0.008
2080.000	-2.080	1.000	0.000	0.011	0.008
2081.000	-2.081	1.000	0.000	0.021	0.008
2082.000	-2.082	1.000	0.000	0.044	0.008
2083.000	-2.083	1.000	0.000	0.030	0.008
2084.000	-2.084	1.000	0.000	0.005	0.008
2085.000	-2.085	1.000	0.000	0.045	0.008
2086.000	-2.086	1.000	0.000	0.037	0.008
2087.000	-2.087	1.000	0.000	0.043	0.008
2088.000	-2.088	1.000	0.000	0.031	0.008
2089.000	-2.089	1.000	0.000	0.015	0.008
2090.000	-2.090	1.000	0.000	0.048	0.008
2091.000	-2.091	1.000	0.000	0.038	0.008
2092.000	-2.092	1.000	0.000	0.062	0.008
2093.000	-2.093	1.000	0.000	0.018	0.008
2094.000	-2.094	1.000	0.000	0.062	0.008
2095.000	-2.095	1.000	0.000	0.048	0.008
2096.000	-2.096	1.000	0.000	0.050	0.008
2097.000	-2.097	1.000	0.000	0.036	0.008
2098.000	-2.098	1.000	0.000	0.048	0.008
2099.000	-2.099	1.000	0.000	0.026	0.008
2100.000	-2.100	1.000	0.000	0.022	0.008
2101.000	-2.101	1.000	0.000	0.026	0.008
2102.000	-2.102	1.000	0.000	0.049	0.008
2103.000	-2.103	1.000	0.000	0.018	0.008
2104.000	-2.104	1.000	0.000	-0.007	0.008
2105.000	-2.105	1.000	0.000	0.046	0.008
2106.000	-2.106	1.000	0.000	0.015	0.008
2107.000	-2.107	1.000	0.000	0.014	0.008
2108.000	-2.108	1.000	0.000	0.048	0.008
2109.000	-2.109	1.000	0.000	0.018	0.008
2110.000	-2.110	1.000	0.000	0.028	0.008
2111.000	-2.111	1.000	0.000	0.010	0.008
2112.000	-2.112	1.000	0.000	0.022	0.008
2113.000	-2.113	1.000	0.000	0.025	0.008
2114.000	-2.114	1.000	0.000	0.055	0.008
2115.000	-2.115	1.000	0.000	0.024	0.008
2116.000	-2.116	1.000	0.000	0.031	0.008
2117.000	-2.117	1.000	0.000	0.021	0.008
2118.000	-2.118	1.000	0.000	0.031	0.008
2119.000	-2.119	1.000	0.000	0.027	0.008
2120.000	-2.120	1.000	0.000	0.038	0.008
2121.000	-2.121	1.000	0.000	0.032	0.008
2122.000	-2.122	1.000	0.000	0.041	0.008
2123.000	-2.123	1.000	0.000	0.034	0.008
2124.000	-2.124	1.000	0.000	0.055	0.008
2125.000	-2.125	1.000	0.000	0.041	0.008
2126.000	-2.126	1.000	0.000	0.052	0.008
2127.000	-2.127	1.000	0.000	0.059	0.008
2128.000	-2.128	1.000	0.000	0.057	0.008
2129.000	-2.129	1.000	0.000	0.043	0.008
2130.000	-2.130	1.000	0.000	0.026	0.008
2131.000	-2.131	1.000	0.000	0.048	0.008
2132.000	-2.132	1.000	0.000	0.026	0.008
2133.000	-2.133	1.000	0.000	0.041	0.008
2134.000	-2.134	1.000	0.000	0.014	0.008
2135.000	-2.135	1.000	0.000	0.002	0.008
2136.000	-2.136	1.000	0.000	0.032	0.008
2137.000	-2.137	1.000	0.000	0.010	0.008
2138.000	-2.138	1.000	0.000	0.060	0.008
2139.000	-2.139	1.000	0.000	0.006	0.008
2140.000	-2.140	1.000	0.000	0.017	0.008
2141.000	-2.141	1.000	0.000	0.043	0.008
2142.000	-2.142	1.000	0.000	0.036	0.008
2143.000	-2.143	1.000	0.000	0.006	0.008
2144.000	-2.144	1.000	0.000	0.030	0.008
2145.000	-2.145	1.000	0.000	0.013	0.008
2146.000	-2.146	1.000	0.000	0.045	0.008
2147.000	-2.147	1.000	0.000	0.029	0.008
2148.000	-2.148	1.000	0.000	0.004	0.008
2149.000	-2.149	1.000	0.000	0.037	0.008
2150.000	-2.150	1.000	0.000	0.040	0.008
2151.000	-2.151	1.000	0.000	0.003	0.008
2152.000	-2.152	1.000	0.000	-0.015	0.008
2153.000	-2.153	1.000	0.000	0.024	0.008
2154.000	-2.154	1.000	0.000	0.015	0.008
2155.000	-2.155	1.000	0.000	0.019	0.008
2156.000	-2.156	1.000	0.000	-0.006	0.008
2157.000	-2.157	1.000	0.000	0.027	0.008
2158.000	-2.158	1.000	0.000	0.007	0.008
2159.000	-2.159	1.000	0.000	0.014	0.008
2160.000	-2.160	1.000	0.000	0.037	0.008
2161.000	-2.161	1.000	0.000	0.030	0.008
2162.000	-2.162	1.000	0.000	0.032	0.008
2163.000	-2.163	1.000	0.000	0.076	0.008
2164.000	-2.164	1.000	0.000	0.079	0.008
2165.000	-2.165	1.000	0.000	0.111	0.008
2166.000	-2.166	1.000	0.000	0.069	0.008
2167.000	-2.167	1.000	0.000	0.180	0.008
2168.000	-2.168	1.000	0.000	0.066	0.008
2169.000	-2.169	1.000	0.000	0.143	0.008
2170.000	-2.170	1.000	0.000	0.146	0.008
2171.000	-2.171	1.000	0.000	0.053	0.008
2172.000	-2.172	1.000	0.000	0.022	0.008
2173.000	-2.173	1.000	0.000	0.046	0.008
2174.000	-2.174	1.000	0.000	0.051	0.008
2175.000	-2.175	1.000	0.000	0.048	0.008
2176.000	-2.176	1.000	0.000	0.015	0.008
2177.000	-2.177	1.000	0.000	0.026	0.008
2178.000	-2.178	1.000	0.000	0.038	0.008
2179.000	-2.179	1.000	0.000	0.043	0.008
2180.000	-2.180	1.000	0.000	0.024	0.008
2181.000	-2.181	1.000	0.000	0.029	0.008
2182.000	-2.182	1.000	0.000	0.050	0.008
2183.000	-2.183	1.000	0.000	0.063	0.008
2184.000	-2.184	1.000	0.000	0.046	0.008
2185.000	-2.185	1.000	0.000	0.032	0.008
2186.000	-2.186	1.000	0.000	0.027	0.008
2187.000	-2.187	1.000	0.000	0.040	0.008
2188.000	-2.188	1.000	0.000	0.045	0.008
2189.000	-2.189	1.000	0.000	0.051	0.008
2190.000	-2.190	1.000	0.000	0.033	0.008
2191.000	-2.191	1.000	0.000	0.043	0.008
2192.000	-2.192	1.000	0.000	0.040	0.008
2193.000	-2.193	1.000	0.000	0.036	0.008
2194.000	-2.194	1.000	0.000	0.048	0.008
2195.000	-2.195	1.000	0.000	0.033	0.008
2196.000	-2.196	1.000	0.000	0.038	0.008
2197.000	-2.197	1.000	0.000	0.024	0.008
2198.000	-2.198	1.000	0.000	0.025	0.008
2199.000	-2.199	1.000	0.000	0.050	0.008
2200.000	-2.200	1.000	0.000	0.035	0.008
2201.000	-2.201	1.000	0.000	0.067	0.008
2202.000	-2.202	1.000	0.000	0.032	0.008
2203.000	-2.203	1.000	0.000	0.050	0.008
2204.000	-2.204	1.000	0.000	0.039	0.008
2205.000	-2.205	1.000	0.000	0.026	0.008
2206.000	-2.206	1.000	0.000	0.056	0.008
2207.000	-2.207	1.000	0.000	0.028	0.008
2208.000	-2.208	1.000	0.000	0.027	0.008
2209.000	-2.209	1.000	0.000	0.025	0.008
2210.000	-2.210	1.000	0.000	0.030	0.008
2211.000	-2.211	1.000	0.000	0.010	0.008
2212.000	-2.212	1.000	0.000	0.033	0.008
2213.000	-2.213	1.000	0.000	0.021	0.008
2214.000	-2.214	1.000	0.000	0.072	0.008
2215.000	-2.215	1.000	0.000	0.029	0.008
2216.000	-2.216	1.000	0.000	0.036	0.008
2217.000	-2.217	1.000	0.000	0.027	0.008
2218.000	-2.218	1.000	0.000	0.045	0.008
2219.000	-2.219	1.000	0.000	0.028	0.008
2220.000	-2.220	1.000	0.000	0.093	0.008
2221.000	-2.221	1.000	0.000	0.040	0.008
2222.000	-2.222	1.000	0.000	0.036	0.008
2223.000	-2.223	1.000	0.000	0.040	0.008
2224.000	-2.224	1.000	0.000	0.030	0.008
2225.000	-2.225	1.000	0.000	0.005	0.008
2226.000	-2.226	1.000	0.000	0.017	0.008
2227.000	-2.227	1.000	0.000	0.018	0.008
2228.000	-2.228	1.000	0.000	0.020	0.008
2229.000	-2.229	1.000	0.000	-0.005	0.008
2230.000	-2.230	1.000	0.000	0.017	0.008
2231.000	-2.231	1.000	0.000	0.008	0.008
2232.000	-2.232	1.000	0.000	0.038	0.008
2233.000	-2.233	1.000	0.000	0.007	0.008
2234.000	-2.234	1.000	0.000	0.010	0.008
2235.000	-2.235	1.000	0.000	0.038	0.008
2236.000	-2.236	1.000	0.000	0.059	0.008
2237.000	-2.237	1.000	0.000	0.063	0.008
2238.000	-2.238	1.000	0.000	0.041	0.008
2239.000	-2.239	1.000	0.000	0.006	0.008
2240.000	-2.240	1.000	0.000	0.071	0.008
2241.000	-2.241	1.000	0.000	0.024	0.008
2242.000	-2.242	1.000	0.000	0.038	0.008
2243.000	-2.243	1.000	0.000	0.045	0.008
2244.000	-2.244	1.000	0.000	0.035	0.008
2245.000	-2.245	1.000	0.000	0.045	0.008
2246.000	-2.246	1.000	0.000	0.052	0.008
2247.000	-2.247	1.000	0.000	0.017	0.008
2248.000	-2.248	1.000	0.000	0.063	0.008
2249.000	-2.249	1.000	0.000	0.032	0.008
2250.000	-2.250	1.000	0.000	0.051	0.008
2251.000	-2.251	1.000	0.000	0.022	0.008
2252.000	-2.252	1.000	0.000	0.045	0.008
2253.000	-2.253	1.000	0.000	0.024	0.008
2254.000	-2.254	1.000	0.000	0.106	0.008
2255.000	-2.255	1.000	0.000	0.049	0.008
2256.000	-2.256	1.000	0.000	0.047	0.008
2257.000	-2.257	1.000	0.000	0.079	0.008
2258.000	-2.258	1.000	0.000	0.126	0.008
2259.000	-2.259	1.000	0.000	0.125	0.008
2260.000	-2.260	1.000	0.000	0.219	0.008
2261.000	-2.261	1.000	0.000	0.239	0.008
2262.000	-2.262	1.000	0.000	0.202	0.008
2263.000	-2.263	1.000	0.000	0.164	0.008
2264.000	-2.264	1.000	0.000	0.178	0.008
2265.000	-2.265	1.000	0.000	0.182	0.008
2266.000	-2.266	1.000	0.000	0.117	0.008
2267.000	-2.267	1.000	0.000	0.115	0.008
2268.000	-2.268	1.000	0.000	0.067	0.008
2269.000	-2.269	1.000	0.000	0.096	0.008
2270.000	-2.270	1.000	0.000	0.085	0.008
2271.000	-2.271	1.000	0.000	0.046	0.008
2272.000	-2.272	1.000	0.000	0.060	0.008
2273.000	-2.273	1.000	0.000	0.050	0.008
2274.000	-2.274	1.000	0.000	0.094	0.008
2275.000	-2.275	1.000	0.000	0.049	0.008
2276.000	-2.276	1.000	0.000	0.055	0.008
2277.000	-2.277	1.000	0.000	0.009	0.008
2278.000	-2.278	1.000	0.000	-0.003	0.008
2279.000	-2.279	1.000	0.000	0.053	0.008
2280.000	-2.280	1.000	0.000	0.040	0.008
2281.000	-2.281	1.000	0.000	0.070	0.008
2282.000	-2.282	1.000	0.000	0.105	0.008
2283.000	-2.283	1.000	0.000	0.011	0.008
2284.000	-2.284	1.000	0.000	0.056	0.008
2285.000	-2.285	1.000	0.000	0.051	0.008
2286.000	-2.286	1.000	0.000	0.021	0.008
2287.000	-2.287	1.000	0.000	0.061	0.008
2288.000	-2.288	1.000	0.000	0.095	0.008
2289.000	-2.289	1.000	0.000	0.040	0.008
2290.000	-2.290	1.000	0.000	0.074	0.008
2291.000	-2.291	1.000	0.000	0.020	0.008
2292.000	-2.292	1.000	0.000	0.072	0.008
2293.000	-2.293	1.000	0.000	0.017	0.008
2294.000	-2.294	1.000	0.000	0.041	0.008
2295.000	-2.295	1.000	0.000	0.053	0.008
2296.000	-2.296	1.000	0.000	0.025	0.008
2297.000	-2.297	1.000	0.000	0.063	0.008
2298.000	-2.298	1.000	0.000	-0.003	0.008
2299.000	-2.299	1.000	0.000	0.041	0.008
2300.000	-2.300	1.000	0.000	0.040	0.008
2301.000	-2.301	1.000	0.000	0.047	0.008
2302.000	-2.302	1.000	0.000	0.049	0.008
2303.000	-2.303	1.000	0.000	0.030	0.008
2304.000	-2.304	1.000	0.000	0.042	0.008
2305.000	-2.305	1.000	0.000	0.046	0.008
2306.000	-2.306	1.000	0.000	0.026	0.008
2307.000	-2.307	1.000	0.000	0.038	0.008
2308.000	-2.308	1.000	0.000	0.052	0.008
2309.000	-2.309	1.000	0.000	0.045	0.008
2310.000	-2.310	1.000	0.000	0.088	0.008
2311.000	-2.311	1.000	0.000	0.043	0.008
2312.000	-2.312	1.000	0.000	0.025	0.008
2313.000	-2.313	1.000	0.000	0.087	0.008
2314.000	-2.314	1.000	0.000	0.106	0.008
2315.000	-2.315	1.000	0.000	0.121	0.008
2316.000	-2.316	1.000	0.000	0.078	0.008
2317.000	-2.317	1.000	0.000	0.088	0.008
2318.000	-2.318	1.000	0.000	0.080	0.008
2319.000	-2.319	1.000	0.000	0.008	0.008
2320.000	-2.320	1.000	0.000	0.065	0.008
2321.000	-2.321	1.000	0.000	0.001	0.008
2322.000	-2.322	1.000	0.000	0.060	0.008
2323.000	-2.323	1.000	0.000	0.015	0.008
2324.000	-2.324	1.000	0.000	0.065	0.008
2325.000	-2.325	1.000	0.000	0.044	0.008
2326.000	-2.326	1.000	0.000	0.023	0.008
2327.000	-2.327	1.000	0.000	0.039	0.008
2328.000	-2.328	1.000	0.000	0.022	0.008
2329.000	-2.329	1.000	0.000	0.054	0.008
2330.000	-2.330	1.000	0.000	-0.006	0.008
2331.000	-2.331	1.000	0.000	0.018	0.008
2332.000	-2.332	1.000	0.000	0.051	0.008
2333.000	-2.333	1.000	0.000	0.031	0.008
2334.000	-2.334	1.000	0.000	0.038	0.008
2335.000	-2.335	1.000	0.000	0.009	0.008
2336.000	-2.336	1.000	0.000	0.043	0.008
2337.000	-2.337	1.000	0.000	0.061	0.008
2338.000	-2.338	1.000	0.000	0.035	0.008
2339.000	-2.339	1.000	0.000	0.005	0.008
2340.000	-2.340	1.000	0.000	0.034	0.008
2341.000	-2.341	1.000	0.000	0.019	0.008
2342.000	-2.342	1.000	0.000	0.065	0.008
2343.000	-2.343	1.000	0.000	0.028	0.008
2344.000	-2.344	1.000	0.000	0.031	0.008
2345.000	-2.345	1.000	0.000	0.030	0.008
2346.000	-2.346	1.000	0.000	0.026	0.008
2347.000	-2.347	1.000	0.000	0.053	0.008
2348.000	-2.348	1.000	0.000	0.064	0.008
2349.000	-2.349	1.000	0.000	0.055	0.008
2350.000	-2.350	1.000	0.000	0.022	0.008
2351.000	-2.351	1.000	0.000	0.036	0.008
2352.000	-2.352	1.000	0.000	0.029	0.008
2353.000	-2.353	1.000	0.000	0.065	0.008
2354.000	-2.354	1.000	0.000	0.080	0.008
2355.000	-2.355	1.000	0.000	0.134	0.008
2356.000	-2.356	1.000	0.000	0.295	0.008
2357.000	-2.357	1.000	0.000	0.273	0.008
2358.000	-2.358	1.000	0.000	0.256	0.008
2359.000	-2.359	1.000	0.000	0.236	0.008
2360.000	-2.360	1.000	0.000	0.091	0.008
2361.000	-2.361	1.000	0.000	0.144	0.008
2362.000	-2.362	1.000	0.000	0.130	0.008
2363.000	-2.363	1.000	0.000	0.135	0.008
2364.000	-2.364	1.000	0.000	0.113	0.008
2365.000	-2.365	1.000	0.000	0.086	0.008
2366.000	-2.366	1.000	0.000	0.047	0.008
2367.000	-2.367	1.000	0.000	0.074	0.008
2368.000	-2.368	1.000	0.000	0.078	0.008
2369.000	-2.369	1.000	0.000	0.029	0.008
2370.000	-2.370	1.000	0.000	0.028	0.008
2371.000	-2.371	1.000	0.000	0.102	0.008
2372.000	-2.372	1.000	0.000	0.057	0.008
2373.000	-2.373	1.000	0.000	0.002	0.008
2374.000	-2.374	1.000	0.000	0.042	0.008
2375.000	-2.375	1.000	0.000	0.048	0.008
2376.000	-2.376	1.000	0.000	0.056	0.008
2377.000	-2.377	1.000	0.000	0.027	0.008
2378.000	-2.378	1.000	0.000	0.031	0.008
2379.000	-2.379	1.000	0.000	0.032	0.008
2380.000	-2.380	1.000	0.000	0.050	0.008
2381.000	-2.381	1.000	0.000	0.055	0.008
2382.000	-2.382	1.000	0.000	0.051	0.008
2383.000	-2.383	1.000	0.000	0.023	0.008
2384.000	-2.384	1.000	0.000	0.063	0.008
2385.000	-2.385	1.000	0.000	0.065	0.008
2386.000	-2.386	1.000	0.000	0.088	0.008
2387.000	-2.387	1.000	0.000	0.043	0.008
2388.000	-2.388	1.000	0.000	0.041	0.008
2389.000	-2.389	1.000	0.000	0.020	0.008
2390.000	-2.390	1.000	0.000	0.046	0.008
2391.000	-2.391	1.000	0.000	0.008	0.008
2392.000	-2.392	1.000	0.000	0.003	0.008
2393.000	-2.393	1.000	0.000	0.030	0.008
2394.000	-2.394	1.000	0.000	0.039	0.008
2395.000	-2.395	1.000	0.000	0.025	0.008
2396.000	-2.396	1.000	0.000	0.039	0.008
2397.000	-2.397	1.000	0.000	0.056	0.008
2398.000	-2.398	1.000	0.000	0.016	0.008
2399.000	-2.399	1.000	0.000	0.044	0.008
2400.000	-2.400	1.000	0.000	0.067	0.008
2401.000	-2.401	1.000	0.000	0.036	0.008
2402.000	-2.402	1.000	0.000	0.035	0.008
2403.000	-2.403	1.000	0.000	0.014	0.008
2404.000	-2.404	1.000	0.000	0.042	0.008
2405.000	-2.405	1.000	0.000	0.045	0.008
2406.000	-2.406	1.000	0.000	0.067	0.008
2407.000	-2.407	1.000	0.000	0.162	0.008
2408.000	-2.408	1.000	0.000	0.084	0.008
2409.000	-2.409	1.000	0.000	0.080	0.008
2410.000	-2.410	1.000	0.000	0.089	0.008
2411.000	-2.411	1.000	0.000	0.113	0.008
2412.000	-2.412	1.000	0.000	0.109	0.008
2413.000	-2.413	1.000	0.000	0.044	0.008
2414.000	-2.414	1.000	0.000	0.036	0.008
2415.000	-2.415	1.000	0.000	0.041	0.008
2416.000	-2.416	1.000	0.000	0.038	0.008
2417.000	-2.417	1.000	0.000	0.028	0.008
2418.000	-2.418	1.000	0.000	0.022	0.008
2419.000	-2.419	1.000	0.000	0.011	0.008
2420.000	-2.420	1.000	0.000	0.041	0.008
2421.000	-2.421	1.000	0.000	0.034	0.008
2422.000	-2.422	1.000	0.000	0.052	0.008
2423.000	-2.423	1.000	0.000	0.006	0.008
2424.000	-2.424	1.000	0.000	0.012	0.008
2425.000	-2.425	1.000	0.000	0.011	0.008
2426.000	-2.426	1.000	0.000	0.035	0.008
2427.000	-2.427	1.000	0.000	0.021	0.008
2428.000	-2.428	1.000	0.000	0.019	0.008
2429.000	-2.429	1.000	0.000	0.037	0.008
2430.000	-2.430	1.000	0.000	0.095	0.008
2431.000	-2.431	1.000	0.000	0.046	0.008
2432.000	-2.432	1.000	0.000	0.046	0.008
2433.000	-2.433	1.000	0.000	0.018	0.008
2434.000	-2.434	1.000	0.000	0.053	0.008
2435.000	-2.435	1.000	0.000	0.037	0.008
2436.000	-2.436	1.000	0.000	0.040	0.008
2437.000	-2.437	1.000	0.000	0.033	0.008
2438.000	-2.438	1.000	0.000	0.019	0.008
2439.000	-2.439	1.000	0.000	0.033	0.008
2440.000	-2.440	1.000	0.000	0.011	0.008
2441.000	-2.441	1.000	0.000	0.045	0.008
2442.000	-2.442	1.000	0.000	0.053	0.008
2443.000	-2.443	1.000	0.000	0.060	0.008
2444.000	-2.444	1.000	0.000	0.096	0.008
2445.000	-2.445	1.000	0.000	0.027	0.008
2446.000	-2.446	1.000	0.000	0.080	0.008
2447.000	-2.447	1.000	0.000	0.135	0.008
2448.000	-2.448	1.000	0.000	0.154	0.008
2449.000	-2.449	1.000	0.000	0.191	0.008
2450.000	-2.450	1.000	0.000	0.151	0.008
2451.000	-2.451	1.000	0.000	0.186	0.008
2452.000	-2.452	1.000	0.000	0.179	0.008
2453.000	-2.453	1.000	0.000	0.169	0.008
2454.000	-2.454	1.000	0.000	0.087	0.008
2455.000	-2.455	1.000	0.000	0.062	0.008
2456.000	-2.456	1.000	0.000	0.085	0.008
2457.000	-2.457	1.000	0.000	0.102	0.008
2458.000	-2.458	1.000	0.000	0.069	0.008
2459.000	-2.459	1.000	0.000	0.070	0.008
2460.000	-2.460	1.000	0.000	0.073	0.008
2461.000	-2.461	1.000	0.000	0.031	0.008
2462.000	-2.462	1.000	0.000	0.054	0.008
2463.000	-2.463	1.000	0.000	0.086	0.008
2464.000	-2.464	1.000	0.000	0.016	0.008
2465.000	-2.465	1.000	0.000	0.032	0.008
2466.000	-2.466	1.000	0.000	0.047	0.008
2467.000	-2.467	1.000	0.000	0.016	0.008
2468.000	-2.468	1.000	0.000	0.030	0.008
2469.000	-2.469	1.000	0.000	0.037	0.008
2470.000	-2.470	1.000	0.000	0.022	0.008
2471.000	-2.471	1.000	0.000	0.003	0.008
2472.000	-2.472	1.000	0.000	0.015	0.008
2473.000	-2.473	1.000	0.000	0.037	0.008
2474.000	-2.474	1.000	0.000	0.073	0.008
2475.000	-2.475	1.000	0.000	0.063	0.008
2476.000	-2.476	1.000	0.000	0.024	0.008
2477.000	-2.477	1.000	0.000	0.047	0.008
2478.000	-2.478	1.000	0.000	0.058	0.008
2479.000	-2.479	1.000	0.000	0.074	0.008
2480.000	-2.480	1.000	0.000	0.061	0.008
2481.000	-2.481	1.000	0.000	0.053	0.008
2482.000	-2.482	1.000	0.000	0.064	0.008
2483.000	-2.483	1.000	0.000	0.022	0.008
2484.000	-2.484	1.000	0.000	0.064	0.008
2485.000	-2.485	1.000	0.000	0.039	0.008
2486.000	-2.486	1.000	0.000	0.035	0.008
2487.000	-2.487	1.000	0.000	0.043	0.008
2488.000	-2.488	1.000	0.000	0.019	0.008
2489.000	-2.489	1.000	0.000	0.019	0.008
2490.000	-2.490	1.000	0.000	0.035	0.008
2491.000	-2.491	1.000	0.000	0.004	0.008
2492.000	-2.492	1.000	0.000	0.046	0.008
2493.000	-2.493	1.000	0.000	0.048	0.008
2494.000	-2.494	1.000	0.000	0.050	0.008
2495.000	-2.495	1.000	0.000	0.052	0.008
2496.000	-2.496	1.000	0.000	0.045	0.008
2497.000	-2.497	1.000	0.000	0.041	0.008
2498.000	-2.498	1.000	0.000	0.098	0.008
2499.000	-2.499	1.000	0.000	0.049	0.008
2500.000	-2.500	1.000	0.000	0.085	0.008
2501.000	-2.501	1.000	0.000	0.107	0.008
2502.000	-2.502	1.000	0.000	0.079	0.008
2503.000	-2.503	1.000	0.000	0.157	0.008
2504.000	-2.504	1.000	0.000	0.102	0.008
2505.000	-2.505	1.000	0.000	0.193	0.008
2506.000	-2.506	1.000	0.000	0.073	0.008
2507.000	-2.507	1.000	0.000	0.067	0.008
2508.000	-2.508	1.000	0.000	0.067	0.008
2509.000	-2.509	1.000	0.000	0.092	0.008
2510.000	-2.510	1.000	0.000	0.045	0.008
2511.000	-2.511	1.000	0.000	0.041	0.008
2512.000	-2.512	1.000	0.000	0.014	0.008
2513.000	-2.513	1.000	0.000	0.007	0.008
2514.000	-2.514	1.000	0.000	0.038	0.008
2515.000	-2.515	1.000	0.000	0.016	0.008
2516.000	-2.516	1.000	0.000	0.013	0.008
2517.000	-2.517	1.000	0.000	0.057	0.008
2518.000	-2.518	1.000	0.000	0.022	0.008
2519.000	-2.519	1.000	0.000	0.058	0.008
2520.000	-2.520	1.000	0.000	0.032	0.008
2521.000	-2.521	1.000	0.000	0.004	0.008
2522.000	-2.522	1.000	0.000	0.034	0.008
2523.000	-2.523	1.000	0.000	0.068	0.008
2524.000	-2.524	1.000	0.000	0.028	0.008
2525.000	-2.525	1.000	0.000	0.012	0.008
2526.000	-2.526	1.000	0.000	0.013	0.008
2527.000	-2.527	1.000	0.000	0.095	0.008
2528.000	-2.528	1.000	0.000	0.032	0.008
2529.000	-2.529	1.000	0.000	0.026	0.008
2530.000	-2.530	1.000	0.000	0.085	0.008
2531.000	-2.531	1.000	0.000	0.034	0.008
2532.000	-2.532	1.000	0.000	0.036	0.008
2533.000	-2.533	1.000	0.000	0.036	0.008
2534.000	-2.534	1.000	0.000	0.020	0.008
2535.000	-2.535	1.000	0.000	0.008	0.008
2536.000	-2.536	1.000	0.000	0.063	0.008
2537.000	-2.537	1.000	0.000	0.123	0.008
2538.000	-2.538	1.000	0.000	0.075	0.008
2539.000	-2.539	1.000	0.000	0.199	0.008
2540.000	-2.540	1.000	0.000	0.146	0.008
2541.000	-2.541	1.000	0.000	0.112	0.008
2542.000	-2.542	1.000	0.000	0.110	0.008
2543.000	-2.543	1.000	0.000	0.106	0.008
2544.000	-2.544	1.000	0.000	0.200	0.008
2545.000	-2.545	1.000	0.000	0.199	0.008
2546.000	-2.546	1.000	0.000	0.203	0.008
2547.000	-2.547	1.000	0.000	0.209	0.008
2548.000	-2.548	1.000	0.000	0.192	0.008
2549.000	-2.549	1.000	0.000	0.155	0.008
2550.000	-2.550	1.000	0.000	0.080	0.008
2551.000	-2.551	1.000	0.000	0.069	0.008
2552.000	-2.552	1.000	0.000	0.056	0.008
2553.000	-2.553	1.000	0.000	0.054	0.008
2554.000	-2.554	1.000	0.000	0.010	0.008
2555.000	-2.555	1.000	0.000	0.074	0.008
2556.000	-2.556	1.000	0.000	0.059	0.008
2557.000	-2.557	1.000	0.000	0.023	0.008
2558.000	-2.558	1.000	0.000	0.061	0.008
2559.000	-2.559	1.000	0.000	0.048	0.008
2560.000	-2.560	1.000	0.000	0.036	0.008
2561.000	-2.561	1.000	0.000	0.050	0.008
2562.000	-2.562	1.000	0.000	0.044	0.008
2563.000	-2.563	1.000	0.000	0.044	0.008
2564.000	-2.564	1.000	0.000	0.030	0.008
2565.000	-2.565	1.000	0.000	0.030	0.008
2566.000	-2.566	1.000	0.000	0.026	0.008
2567.000	-2.567	1.000	0.000	0.020	0.008
2568.000	-2.568	1.000	0.000	0.015	0.008
2569.000	-2.569	1.000	0.000	0.091	0.008
2570.000	-2.570	1.000	0.000	0.064	0.008
2571.000	-2.571	1.000	0.000	0.073	0.008
2572.000	-2.572	1.000	0.000	0.039	0.008
2573.000	-2.573	1.000	0.000	0.071	0.008
2574.000	-2.574	1.000	0.000	0.040	0.008
2575.000	-2.575	1.000	0.000	0.021	0.008
2576.000	-2.576	1.000	0.000	0.056	0.008
2577.000	-2.577	1.000	0.000	0.046	0.008
2578.000	-2.578	1.000	0.000	0.046	0.008
2579.000	-2.579	1.000	0.000	0.042	0.008
2580.000	-2.580	1.000	0.000	0.027	0.008
2581.000	-2.581	1.000	0.000	0.081	0.008
2582.000	-2.582	1.000	0.000	0.003	0.008
2583.000	-2.583	1.000	0.000	0.037	0.008
2584.000	-2.584	1.000	0.000	0.008	0.008
2585.000	-2.585	1.000	0.000	0.008	0.008
2586.000	-2.586	1.000	0.000	0.068	0.008
2587.000	-2.587	1.000	0.000	-0.010	0.008
2588.000	-2.588	1.000	0.000	0.030	0.008
2589.000	-2.589	1.000	0.000	0.045	0.008
2590.000	-2.590	1.000	0.000	0.024	0.008
2591.000	-2.591	1.000	0.000	0.095	0.008
2592.000	-2.592	1.000	0.000	0.059	0.008
2593.000	-2.593	1.000	0.000	0.097	0.008
2594.000	-2.594	1.000	0.000	0.147	0.008
2595.000	-2.595	1.000	0.000	0.109	0.008
2596.000	-2.596	1.000	0.000	0.068	0.008
2597.000	-2.597	1.000	0.000	0.113	0.008
2598.000	-2.598	1.000	0.000	0.093	0.008
2599.000	-2.599	1.000	0.000	0.052	0.008
2600.000	-2.600	1.000	0.000	0.040	0.008
2601.000	-2.601	1.000	0.000	0.057	0.008
2602.000	-2.602	1.000	0.000	0.053	0.008
2603.000	-2.603	1.000	0.000	0.024	0.008
2604.000	-2.604	1.000	0.000	0.058	0.008
2605.000	-2.605	1.000	0.000	0.019	0.008
2606.000	-2.606	1.000	0.000	0.022	0.008
2607.000	-2.607	1.000	0.000	0.036	0.008
2608.000	-2.608	1.000	0.000	-0.005	0.008
2609.000	-2.609	1.000	0.000	0.044	0.008
2610.000	-2.610	1.000	0.000	0.020	0.008
2611.000	-2.611	1.000	0.000	0.041	0.008
2612.000	-2.612	1.000	0.000	0.014	0.008
2613.000	-2.613	1.000	0.000	0.063	0.008
2614.000	-2.614	1.000	0.000	0.046	0.008
2615.000	-2.615	1.000	0.000	0.059	0.008
2616.000	-2.616	1.000	0.000	0.034	0.008
2617.000	-2.617	1.000	0.000	0.024	0.008
2618.000	-2.618	1.000	0.000	0.042	0.008
2619.000	-2.619	1.000	0.000	0.026	0.008
2620.000	-2.620	1.000	0.000	0.067	0.008
2621.000	-2.621	1.000	0.000	0.077	0.008
2622.000	-2.622	1.000	0.000	0.060	0.008
2623.000	-2.623	1.000	0.000	0.042	0.008
2624.000	-2.624	1.000	0.000	0.053	0.008
2625.000	-2.625	1.000	0.000	0.084	0.008
2626.000	-2.626	1.000	0.000	0.055	0.008
2627.000	-2.627	1.000	0.000	0.072	0.008
2628.000	-2.628	1.000	0.000	0.106	0.008
2629.000	-2.629	1.000	0.000	0.073	0.008
2630.000	-2.630	1.000	0.000	0.062	0.008
2631.000	-2.631	1.000	0.000	0.088	0.008
2632.000	-2.632	1.000	0.000	0.128	0.008
2633.000	-2.633	1.000	0.000	0.123	0.008
2634.000	-2.634	1.000	0.000	0.119	0.008
2635.000	-2.635	1.000	0.000	0.151	0.008
2636.000	-2.636	1.000	0.000	0.219	0.008
2637.000	-2.637	1.000	0.000	0.270	0.008
2638.000	-2.638	1.000	0.000	0.246	0.008
2639.000	-2.639	1.000	0.000	0.323	0.008
2640.000	-2.640	1.000	0.000	0.282	0.008
2641.000	-2.641	1.000	0.000	0.248	0.008
2642.000	-2.642	1.000	0.000	0.318	0.008
2643.000	-2.643	1.000	0.000	0.156	0.008
2644.000	-2.644	1.000	0.000	0.159	0.008
2645.000	-2.645	1.000	0.000	0.195	0.008
2646.000	-2.646	1.000	0.000	0.136	0.008
2647.000	-2.647	1.000	0.000	0.085	0.008
2648.000	-2.648	1.000	0.000	0.089	0.008
2649.000	-2.649	1.000	0.000	0.062	0.008
2650.000	-2.650	1.000	0.000	0.079	0.008
2651.000	-2.651	1.000	0.000	0.017	0.008
2652.000	-2.652	1.000	0.000	0.075	0.008
2653.000	-2.653	1.000	0.000	0.073	0.008
2654.000	-2.654	1.000	0.000	0.058	0.008
2655.000	-2.655	1.000	0.000	0.093	0.008
2656.000	-2.656	1.000	0.000	0.112	0.008
2657.000	-2.657	1.000	0.000	0.096	0.008
2658.000	-2.658	1.000	0.000	0.064	0.008
2659.000	-2.659	1.000	0.000	0.083	0.008
2660.000	-2.660	1.000	0.000	0.039	0.008
2661.000	-2.661	1.000	0.000	0.042	0.008
2662.000	-2.662	1.000	0.000	0.018	0.008
2663.000	-2.663	1.000	0.000	0.087	0.008
2664.000	-2.664	1.000	0.000	0.056	0.008
2665.000	-2.665	1.000	0.000	0.093	0.008
2666.000	-2.666	1.000	0.000	0.043	0.008
2667.000	-2.667	1.000	0.000	0.051	0.008
2668.000	-2.668	1.000	0.000	0.048	0.008
2669.000	-2.669	1.000	0.000	0.025	0.008
2670.000	-2.670	1.000	0.000	0.031	0.008
2671.000	-2.671	1.000	0.000	0.040	0.008
2672.000	-2.672	1.000	0.000	0.008	0.008
2673.000	-2.673	1.000	0.000	0.051	0.008
2674.000	-2.674	1.000	0.000	0.072	0.008
2675.000	-2.675	1.000	0.000	0.052	0.008
2676.000	-2.676	1.000	0.000	0.023	0.008
2677.000	-2.677	1.000	0.000	0.035	0.008
2678.000	-2.678	1.000	0.000	0.034	0.008
2679.000	-2.679	1.000	0.000	0.053	0.008
2680.000	-2.680	1.000	0.000	0.046	0.008
2681.000	-2.681	1.000	0.000	0.057	0.008
2682.000	-2.682	1.000	0.000	0.033	0.008
2683.000	-2.683	1.000	0.000	0.020	0.008
2684.000	-2.684	1.000	0.000	0.069	0.008
2685.000	-2.685	1.000	0.000	0.073	0.008
2686.000	-2.686	1.000	0.000	0.078	0.008
2687.000	-2.687	1.000	0.000	0.103	0.008
2688.000	-2.688	1.000	0.000	0.079	0.008
2689.000	-2.689	1.000	0.000	0.197	0.008
2690.000	-2.690	1.000	0.000	0.150	0.008
2691.000	-2.691	1.000	0.000	0.083	0.008
2692.000	-2.692	1.000	0.000	0.131	0.008
2693.000	-2.693	1.000	0.000	0.082	0.008
2694.000	-2.694	1.000	0.000	0.028	0.008
2695.000	-2.695	1.000	0.000	0.072	0.008
2696.000	-2.696	1.000	0.000	0.062	0.008
2697.000	-2.697	1.000	0.000	0.016	0.008
2698.000	-2.698	1.000	0.000	0.043	0.008
2699.000	-2.699	1.000	0.000	0.002	0.008
2700.000	-2.700	1.000	0.000	0.090	0.008
2701.000	-2.701	1.000	0.000	0.013	0.008
2702.000	-2.702	1.000	0.000	0.021	0.008
2703.000	-2.703	1.000	0.000	0.042	0.008
2704.000	-2.704	1.000	0.000	0.079	0.008
2705.000	-2.705	1.000	0.000	0.042	0.008
2706.000	-2.706	1.000	0.000	0.079	0.008
2707.000	-2.707	1.000	0.000	0.050	0.008
2708.000	-2.708	1.000	0.000	0.045	0.008
2709.000	-2.709	1.000	0.000	0.047	0.008
2710.000	-2.710	1.000	0.000	0.104	0.008
2711.000	-2.711	1.000	0.000	0.063	0.008
2712.000	-2.712	1.000	0.000	0.048	0.008
2713.000	-2.713	1.000	0.000	0.051	0.008
2714.000	-2.714	1.000	0.000	0.058	0.008
2715.000	-2.715	1.000	0.000	0.084	0.008
2716.000	-2.716	1.000	0.000	0.051	0.008
2717.000	-2.717	1.000	0.000	0.073	0.008
2718.000	-2.718	1.000	0.000	0.106	0.008
2719.000	-2.719	1.000	0.000	0.113	0.008
2720.000	-2.720	1.000	0.000	0.122	0.008
2721.000	-2.721	1.000	0.000	0.110	0.008
2722.000	-2.722	1.000	0.000	0.091	0.008
2723.000	-2.723	1.000	0.000	0.032	0.008
2724.000	-2.724	1.000	0.000	0.053	0.008
2725.000	-2.725	1.000	0.000	0.112	0.008
2726.000	-2.726	1.000	0.000	0.087	0.008
2727.000	-2.727	1.000	0.000	0.136	0.008
2728.000	-2.728	1.000	0.000	0.126	0.008
2729.000	-2.729	1.000	0.000	0.149	0.008
2730.000	-2.730	1.000	0.000	0.268	0.008
2731.000	-2.731	1.000	0.000	0.209	0.008
2732.000	-2.732	1.000	0.000	0.275	0.008
2733.000	-2.733	1.000	0.000	0.294	0.008
2734.000	-2.734	1.000	0.000	0.483	0.008
2735.000	-2.735	1.000	0.000	0.396	0.008
2736.000	-2.736	1.000	0.000	0.317	0.008
2737.000	-2.737	1.000	0.000	0.308	0.008
2738.000	-2.738	1.000	0.000	0.209	0.008
2739.000	-2.739	1.000	0.000	0.175	0.008
2740.000	-2.740	1.000	0.000	0.106	0.008
2741.000	-2.741	1.000	0.000	0.198	0.008
2742.000	-2.742	1.000	0.000	0.154	0.008
2743.000	-2.743	1.000	0.000	0.092	0.008
2744.000	-2.744	1.000	0.000	0.108	0.008
2745.000	-2.745	1.000	0.000	0.118	0.008
2746.000	-2.746	1.000	0.000	0.016	0.008
2747.000	-2.747	1.000	0.000	0.103	0.008
2748.000	-2.748	1.000	0.000	0.064	0.008
2749.000	-2.749	1.000	0.000	0.125	0.008
2750.000	-2.750	1.000	0.000	0.068	0.008
2751.000	-2.751	1.000	0.000	0.034	0.008
2752.000	-2.752	1.000	0.000	0.083	0.008
2753.000	-2.753	1.000	0.000	0.084	0.008
2754.000	-2.754	1.000	0.000	0.054	0.008
2755.000	-2.755	1.000	0.000	0.056	0.008
2756.000	-2.756	1.000	0.000	0.056	0.008
2757.000	-2.757	1.000	0.000	0.035	0.008
2758.000	-2.758	1.000	0.000	0.038	0.008
2759.000	-2.759	1.000	0.000	0.096	0.008
2760.000	-2.760	1.000	0.000	0.030	0.008
2761.000	-2.761	1.000	0.000	0.036	0.008
2762.000	-2.762	1.000	0.000	0.063	0.008
2763.000	-2.763	1.000	0.000	0.059	0.008
2764.000	-2.764	1.000	0.000	0.051	0.008
2765.000	-2.765	1.000	0.000	-0.005	0.008
2766.000	-2.766	1.000	0.000	0.000	0.008
2767.000	-2.767	1.000	0.000	0.087	0.008
2768.000	-2.768	1.000	0.000	0.007	0.008
2769.000	-2.769	1.000	0.000	0.014	0.008
2770.000	-2.770	1.000	0.000	0.068	0.008
2771.000	-2.771	1.000	0.000	0.074	0.008
2772.000	-2.772	1.000	0.000	0.090	0.008
2773.000	-2.773	1.000	0.000	0.027	0.008
2774.000	-2.774	1.000	0.000	0.055	0.008
2775.000	-2.775	1.000	0.000	0.075	0.008
2776.000	-2.776	1.000	0.000	0.123	0.008
2777.000	-2.777	1.000	0.000	0.096	0.008
2778.000	-2.778	1.000	0.000	0.068	0.008
2779.000	-2.779	1.000	0.000	0.047	0.008
2780.000	-2.780	1.000	0.000	0.088	0.008
2781.000	-2.781	1.000	0.000	0.105	0.008
2782.000	-2.782	1.000	0.000	0.121	0.008
2783.000	-2.783	1.000	0.000	0.162	0.008
2784.000	-2.784	1.000	0.000	0.202	0.008
2785.000	-2.785	1.000	0.000	0.225	0.008
2786.000	-2.786	1.000	0.000	0.121	0.008
2787.000	-2.787	1.000	0.000	0.135	0.008
2788.000	-2.788	1.000	0.000	0.046	0.008
2789.000	-2.789	1.000	0.000	0.088	0.008
2790.000	-2.790	1.000	0.000	0.048	0.008
2791.000	-2.791	1.000	0.000	0.045	0.008
2792.000	-2.792	1.000	0.000	0.053	0.008
2793.000	-2.793	1.000	0.000	0.068	0.008
2794.000	-2.794	1.000	0.000	0.100	0.008
2795.000	-2.795	1.000	0.000	0.035	0.008
2796.000	-2.796	1.000	0.000	0.039	0.008
2797.000	-2.797	1.000	0.000	0.024	0.008
2798.000	-2.798	1.000	0.000	0.044	0.008
2799.000	-2.799	1.000	0.000	0.034	0.008
2800.000	-2.800	1.000	0.000	0.080	0.008
2801.000	-2.801	1.000	0.000	0.051	0.008
2802.000	-2.802	1.000	0.000	0.071	0.008
2803.000	-2.803	1.000	0.000	0.096	0.008
2804.000	-2.804	1.000	0.000	0.075	0.008
2805.000	-2.805	1.000	0.000	0.079	0.008
2806.000	-2.806	1.000	0.000	0.081	0.008
2807.000	-2.807	1.000	0.000	0.085	0.008
2808.000	-2.808	1.000	0.000	0.138	0.008
2809.000	-2.809	1.000	0.000	0.080	0.008
2810.000	-2.810	1.000	0.000	0.079	0.008
2811.000	-2.811	1.000	0.000	0.160	0.008
2812.000	-2.812	1.000	0.000	0.085	0.008
2813.000	-2.813	1.000	0.000	0.075	0.008
2814.000	-2.814	1.000	0.000	0.106	0.008
2815.000	-2.815	1.000	0.000	0.075	0.008
2816.000	-2.816	1.000	0.000	0.096	0.008
2817.000	-2.817	1.000	0.000	0.114	0.008
2818.000	-2.818	1.000	0.000	0.107	0.008
2819.000	-2.819	1.000	0.000	0.087	0.008
2820.000	-2.820	1.000	0.000	0.110	0.008
2821.000	-2.821	1.000	0.000	0.191	0.008
2822.000	-2.822	1.000	0.000	0.252	0.008
2823.000	-2.823	1.000	0.000	0.249	0.008
2824.000	-2.824	1.000	0.000	0.283	0.008
2825.000	-2.825	1.000	0.000	0.344	0.008
2826.000	-2.826	1.000	0.000	0.375	0.008
2827.000	-2.827	1.000	0.000	0.378	0.008
2828.000	-2.828	1.000	0.000	0.401	0.008
2829.000	-2.829	1.000	0.000	0.341	0.008
2830.000	-2.830	1.000	0.000	0.374	0.008
2831.000	-2.831	1.000	0.000	0.212	0.008
2832.000	-2.832	1.000	0.000	0.235	0.008
2833.000	-2.833	1.000	0.000	0.161	0.008
2834.000	-2.834	1.000	0.000	0.117	0.008
2835.000	-2.835	1.000	0.000	0.124	0.008
2836.000	-2.836	1.000	0.000	0.149	0.008
2837.000	-2.837	1.000	0.000	0.117	0.008
2838.000	-2.838	1.000	0.000	0.059	0.008
2839.000	-2.839	1.000	0.000	0.111	0.008
2840.000	-2.840	1.000	0.000	0.051	0.008
2841.000	-2.841	1.000	0.000	0.100	0.008
2842.000	-2.842	1.000	0.000	0.073	0.008
2843.000	-2.843	1.000	0.000	0.059	0.008
2844.000	-2.844	1.000	0.000	0.077	0.008
2845.000	-2.845	1.000	0.000	0.074	0.008
2846.000	-2.846	1.000	0.000	0.054	0.008
2847.000	-2.847	1.000	0.000	0.075	0.008
2848.000	-2.848	1.000	0.000	0.044	0.008
2849.000	-2.849	1.000	0.000	0.067	0.008
2850.000	-2.850	1.000	0.000	0.088	0.008
2851.000	-2.851	1.000	0.000	0.069	0.008
2852.000	-2.852	1.000	0.000	0.039	0.008
2853.000	-2.853	1.000	0.000	0.057	0.008
2854.000	-2.854	1.000	0.000	0.044	0.008
2855.000	-2.855	1.000	0.000	0.040	0.008
2856.000	-2.856	1.000	0.000	0.078	0.008
2857.000	-2.857	1.000	0.000	0.066	0.008
2858.000	-2.858	1.000	0.000	0.058	0.008
2859.000	-2.859	1.000	0.000	0.063	0.008
2860.000	-2.860	1.000	0.000	0.079	0.008
2861.000	-2.861	1.000	0.000	0.031	0.008
2862.000	-2.862	1.000	0.000	0.086	0.008
2863.000	-2.863	1.000	0.000	0.084	0.008
2864.000	-2.864	1.000	0.000	0.071	0.008
2865.000	-2.865	1.000	0.000	0.086	0.008
2866.000	-2.866	1.000	0.000	0.070	0.008
2867.000	-2.867	1.000	0.000	0.083	0.008
2868.000	-2.868	1.000	0.000	0.064	0.008
2869.000	-2.869	1.000	0.000	0.039	0.008
2870.000	-2.870	1.000	0.000	0.085	0.008
2871.000	-2.871	1.000	0.000	0.105	0.008
2872.000	-2.872	1.000	0.000	0.096	0.008
2873.000	-2.873	1.000	0.000	0.154	0.008
2874.000	-2.874	1.000	0.000	0.222	0.008
2875.000	-2.875	1.000	0.000	0.197	0.008
2876.000	-2.876	1.000	0.000	0.211	0.008
2877.000	-2.877	1.000	0.000	0.133	0.008
2878.000	-2.878	1.000	0.000	0.214	0.008
2879.000	-2.879	1.000	0.000	0.172	0.008
2880.000	-2.880	1.000	0.000	0.160	0.008
2881.000	-2.881	1.000	0.000	0.080	0.008
2882.000	-2.882	1.000	0.000	0.097	0.008
2883.000	-2.883	1.000	0.000	0.081	0.008
2884.000	-2.884	1.000	0.000	0.063	0.008
2885.000	-2.885	1.000	0.000	0.060	0.008
2886.000	-2.886	1.000	0.000	0.083	0.008
2887.000	-2.887	1.000	0.000	0.013	0.008
2888.000	-2.888	1.000	0.000	0.090	0.008
2889.000	-2.889	1.000	0.000	0.053	0.008
2890.000	-2.890	1.000	0.000	0.097	0.008
2891.000	-2.891	1.000	0.000	0.072	0.008
2892.000	-2.892	1.000	0.000	0.059	0.008
2893.000	-2.893	1.000	0.000	0.098	0.008
2894.000	-2.894	1.000	0.000	0.065	0.008
2895.000	-2.895	1.000	0.000	0.082	0.008
2896.000	-2.896	1.000	0.000	0.069	0.008
2897.000	-2.897	1.000	0.000	0.083	0.008
2898.000	-2.898	1.000	0.000	0.041	0.008
2899.000	-2.899	1.000	0.000	0.083	0.008
2900.000	-2.900	1.000	0.000	0.031	0.008
2901.000	-2.901	1.000	0.000	0.075	0.008
2902.000	-2.902	1.000	0.000	0.098	0.008
2903.000	-2.903	1.000	0.000	0.057	0.008
2904.000	-2.904	1.000	0.000	0.088	0.008
2905.000	-2.905	1.000	0.000	0.044	0.008
2906.000	-2.906	1.000	0.000	0.102	0.008
2907.000	-2.907	1.000	0.000	0.059	0.008
2908.000	-2.908	1.000	0.000	0.060	0.008
2909.000	-2.909	1.000	0.000	0.082	0.008
2910.000	-2.910	1.000	0.000	0.114	0.008
2911.000	-2.911	1.000	0.000	0.137	0.008
2912.000	-2.912	1.000	0.000	0.159	0.008
2913.000	-2.913	1.000	0.000	0.179	0.008
2914.000	-2.914	1.000	0.000	0.200	0.008
2915.000	-2.915	1.000	0.000	0.181	0.008
2916.000	-2.916	1.000	0.000	0.312	0.008
2917.000	-2.917	1.000	0.000	0.356	0.008
2918.000	-2.918	1.000	0.000	0.325	0.008
2919.000	-2.919	1.000	0.000	0.441	0.008
2920.000	-2.920	1.000	0.000	0.374	0.008
2921.000	-2.921	1.000	0.000	0.487	0.008
2922.000	-2.922	1.000	0.000	0.493	0.008
2923.000	-2.923	1.000	0.000	0.538	0.008
2924.000	-2.924	1.000	0.000	0.315	0.008
2925.000	-2.925	1.000	0.000	0.334	0.008
2926.000	-2.926	1.000	0.000	0.250	0.008
2927.000	-2.927	1.000	0.000	0.287	0.008
2928.000	-2.928	1.000	0.000	0.164	0.008
2929.000	-2.929	1.000	0.000	0.154	0.008
2930.000	-2.930	1.000	0.000	0.173	0.008
2931.000	-2.931	1.000	0.000	0.119	0.008
2932.000	-2.932	1.000	0.000	0.182	0.008
2933.000	-2.933	1.000	0.000	0.111	0.008
2934.000	-2.934	1.000	0.000	0.089	0.008
2935.000	-2.935	1.000	0.000	0.107	0.008
2936.000	-2.936	1.000	0.000	0.065	0.008
2937.000	-2.937	1.000	0.000	0.071	0.008
2938.000	-2.938	1.000	0.000	0.052	0.008
2939.000	-2.939	1.000	0.000	0.083	0.008
2940.000	-2.940	1.000	0.000	0.050	0.008
2941.000	-2.941	1.000	0.000	0.089	0.008
2942.000	-2.942	1.000	0.000	0.090	0.008
2943.000	-2.943	1.000	0.000	0.050	0.008
2944.000	-2.944	1.000	0.000	0.072	0.008
2945.000	-2.945	1.000	0.000	0.091	0.008
2946.000	-2.946	1.000	0.000	0.053	0.008
2947.000	-2.947	1.000	0.000	0.020	0.008
2948.000	-2.948	1.000	0.000	0.043	0.008
2949.000	-2.949	1.000	0.000	0.091	0.008
2950.000	-2.950	1.000	0.000	0.071	0.008
2951.000	-2.951	1.000	0.000	0.061	0.008
2952.000	-2.952	1.000	0.000	0.088	0.008
2953.000	-2.953	1.000	0.000	0.047	0.008
2954.000	-2.954	1.000	0.000	0.063	0.008
2955.000	-2.955	1.000	0.000	0.047	0.008
2956.000	-2.956	1.000	0.000	0.098	0.008
2957.000	-2.957	1.000	0.000	0.071	0.008
2958.000	-2.958	1.000	0.000	0.107	0.008
2959.000	-2.959	1.000	0.000	0.098	0.008
2960.000	-2.960	1.000	0.000	0.036	0.008
2961.000	-2.961	1.000	0.000	0.029	0.008
2962.000	-2.962	1.000	0.000	0.052	0.008
2963.000	-2.963	1.000	0.000	0.078	0.008
2964.000	-2.964	1.000	0.000	0.129	0.008
2965.000	-2.965	1.000	0.000	0.136	0.008
2966.000	-2.966	1.000	0.000	0.147	0.008
2967.000	-2.967	1.000	0.000	0.179	0.008
2968.000	-2.968	1.000	0.000	0.221	0.008
2969.000	-2.969	1.000	0.000	0.126	0.008
2970.000	-2.970	1.000	0.000	0.153	0.008
2971.000	-2.971	1.000	0.000	0.237	0.008
2972.000	-2.972	1.000	0.000	0.146	0.008
2973.000	-2.973	1.000	0.000	0.179	0.008
2974.000	-2.974	1.000	0.000	0.165	0.008
2975.000	-2.975	1.000	0.000	0.096	0.008
2976.000	-2.976	1.000	0.000	0.120	0.008
2977.000	-2.977	1.000	0.000	0.057	0.008
2978.000	-2.978	1.000	0.000	0.094	0.008
2979.000	-2.979	1.000	0.000	0.108	0.008
2980.000	-2.980	1.000	0.000	0.070	0.008
2981.000	-2.981	1.000	0.000	0.077	0.008
2982.000	-2.982	1.000	0.000	0.074	0.008
2983.000	-2.983	1.000	0.000	0.080	0.008
2984.000	-2.984	1.000	0.000	0.133	0.008
2985.000	-2.985	1.000	0.000	0.104	0.008
2986.000	-2.986	1.000	0.000	0.076	0.008
2987.000	-2.987	1.000	0.000	0.125	0.008
2988.000	-2.988	1.000	0.000	0.034	0.008
2989.000	-2.989	1.000	0.000	0.030	0.008
2990.000	-2.990	1.000	0.000	0.070	0.008
2991.000	-2.991	1.000	0.000	0.079	0.008
2992.000	-2.992	1.000	0.000	0.080	0.008
2993.000	-2.993	1.000	0.000	0.066	0.008
2994.000	-2.994	1.000	0.000	0.051	0.008
2995.000	-2.995	1.000	0.000	0.061	0.008
2996.000	-2.996	1.000	0.000	0.116	0.008
2997.000	-2.997	1.000	0.000	0.097	0.008
2998.000	-2.998	1.000	0.000	0.072	0.008
2999.000	-2.999	1.000	0.000	0.095	0.008
3000.000	-3.000	1.000	0.000	0.045	0.008
3001.000	-3.001	1.000	0.000	0.113	0.008
3002.000	-3.002	1.000	0.000	0.172	0.008
3003.000	-3.003	1.000	0.000	0.124	0.008
3004.000	-3.004	1.000	0.000	0.148	0.008
3005.000	-3.005	1.000	0.000	0.103	0.008
3006.000	-3.006	1.000	0.000	0.227	0.008
3007.000	-3.007	1.000	0.000	0.212	0.008
3008.000	-3.008	1.000	0.000	0.195	0.008
3009.000	-3.009	1.000	0.000	0.340	0.008
3010.000	-3.010	1.000	0.000	0.316	0.008
3011.000	-3.011	1.000	0.000	0.388	0.008
3012.000	-3.012	1.000	0.000	0.411	0.008
3013.000	-3.013	1.000	0.000	0.338	0.008
3014.000	-3.014	1.000	0.000	0.377	0.008
3015.000	-3.015	1.000	0.000	0.504	0.008
3016.000	-3.016	1.000	0.000	0.436	0.008
3017.000	-3.017	1.000	0.000	0.442	0.008
3018.000	-3.018	1.000	0.000	0.265	0.008
3019.000	-3.019	1.000	0.000	0.257	0.008
3020.000	-3.020	1.000	0.000	0.246	0.008
3021.000	-3.021	1.000	0.000	0.171	0.008
3022.000	-3.022	1.000	0.000	0.243	0.008
3023.000	-3.023	1.000	0.000	0.166	0.008
3024.000	-3.024	1.000	0.000	0.137	0.008
3025.000	-3.025	1.000	0.000	0.125	0.008
3026.000	-3.026	1.000	0.000	0.101	0.008
3027.000	-3.027	1.000	0.000	0.132	0.008
3028.000	-3.028	1.000	0.000	0.079	0.008
3029.000	-3.029	1.000	0.000	0.113	0.008
3030.000	-3.030	1.000	0.000	0.065	0.008
3031.000	-3.031	1.000	0.000	0.131	0.008
3032.000	-3.032	1.000	0.000	0.070	0.008
3033.000	-3.033	1.000	0.000	0.070	0.008
3034.000	-3.034	1.000	0.000	0.069	0.008
3035.000	-3.035	1.000	0.000	0.052	0.008
3036.000	-3.036	1.000	0.000	0.160	0.008
3037.000	-3.037	1.000	0.000	0.092	0.008
3038.000	-3.038	1.000	0.000	0.041	0.008
3039.000	-3.039	1.000	0.000	0.059	0.008
3040.000	-3.040	1.000	0.000	0.133	0.008
3041.000	-3.041	1.000	0.000	0.047	0.008
3042.000	-3.042	1.000	0.000	0.055	0.008
3043.000	-3.043	1.000	0.000	0.070	0.008
3044.000	-3.044	1.000	0.000	0.041	0.008
3045.000	-3.045	1.000	0.000	0.066	0.008
3046.000	-3.046	1.000	0.000	0.059	0.008
3047.000	-3.047	1.000	0.000	0.021	0.008
3048.000	-3.048	1.000	0.000	0.052	0.008
3049.000	-3.049	1.000	0.000	0.072	0.008
3050.000	-3.050	1.000	0.000	-0.006	0.008
3051.000	-3.051	1.000	0.000	0.085	0.008
3052.000	-3.052	1.000	0.000	0.044	0.008
3053.000	-3.053	1.000	0.000	0.050	0.008
3054.000	-3.054	1.000	0.000	0.050	0.008
3055.000	-3.055	1.000	0.000	0.142	0.008
3056.000	-3.056	1.000	0.000	0.150	0.008
3057.000	-3.057	1.000	0.000	0.131	0.008
3058.000	-3.058	1.000	0.000	0.135	0.008
3059.000	-3.059	1.000	0.000	0.178	0.008
3060.000	-3.060	1.000	0.000	0.246	0.008
3061.000	-3.061	1.000	0.000	0.187	0.008
3062.000	-3.062	1.000	0.000	0.239	0.008
3063.000	-3.063	1.000	0.000	0.168	0.008
3064.000	-3.064	1.000	0.000	0.237	0.008
3065.000	-3.065	1.000	0.000	0.156	0.008
3066.000	-3.066	1.000	0.000	0.183	0.008
3067.000	-3.067	1.000	0.000	0.181	0.008
3068.000	-3.068	1.000	0.000	0.172	0.008
3069.000	-3.069	1.000	0.000	0.132	0.008
3070.000	-3.070	1.000	0.000	0.148	0.008
3071.000	-3.071	1.000	0.000	0.100	0.008
3072.000	-3.072	1.000	0.000	0.128	0.008
3073.000	-3.073	1.000	0.000	0.136	0.008
3074.000	-3.074	1.000	0.000	0.087	0.008
3075.000	-3.075	1.000	0.000	0.133	0.008
3076.000	-3.076	1.000	0.000	0.052	0.008
3077.000	-3.077	1.000	0.000	0.075	0.008
3078.000	-3.078	1.000	0.000	0.073	0.008
3079.000	-3.079	1.000	0.000	0.091	0.008
3080.000	-3.080	1.000	0.000	0.044	0.008
3081.000	-3.081	1.000	0.000	0.042	0.008
3082.000	-3.082	1.000	0.000	0.131	0.008
3083.000	-3.083	1.000	0.000	0.062	0.008
3084.000	-3.084	1.000	0.000	0.112	0.008
3085.000	-3.085	1.000	0.000	0.027	0.008
3086.000	-3.086	1.000	0.000	0.065	0.008
3087.000	-3.087	1.000	0.000	0.062	0.008
3088.000	-3.088	1.000	0.000	0.065	0.008
3089.000	-3.089	1.000	0.000	0.089	0.008
3090.000	-3.090	1.000	0.000	0.138	0.008
3091.000	-3.091	1.000	0.000	0.035	0.008
3092.000	-3.092	1.000	0.000	0.072	0.008
3093.000	-3.093	1.000	0.000	0.093	0.008
3094.000	-3.094	1.000	0.000	0.094	0.008
3095.000	-3.095	1.000	0.000	0.039	0.008
3096.000	-3.096	1.000	0.000	0.177	0.008
3097.000	-3.097	1.000	0.000	0.128	0.008
3098.000	-3.098	1.000	0.000	0.143	0.008
3099.000	-3.099	1.000	0.000	0.205	0.008
3100.000	-3.100	1.000	0.000	0.428	0.008
3101.000	-3.101	1.000	0.000	0.303	0.008
3102.000	-3.102	1.000	0.000	0.308	0.008
3103.000	-3.103	1.000	0.000	0.331	0.008
3104.000	-3.104	1.000	0.000	0.314	0.008
3105.000	-3.105	1.000	0.000	0.392	0.008
3106.000	-3.106	1.000	0.000	0.339	0.008
3107.000	-3.107	1.000	0.000	0.451	0.008
3108.000	-3.108	1.000	0.000	0.281	0.008
3109.000	-3.109	1.000	0.000	0.322	0.008
3110.000	-3.110	1.000	0.000	0.418	0.008
3111.000	-3.111	1.000	0.000	0.346	0.008
3112.000	-3.112	1.000	0.000	0.276	0.008
3113.000	-3.113	1.000	0.000	0.335	0.008
3114.000	-3.114	1.000	0.000	0.334	0.008
3115.000	-3.115	1.000	0.000	0.268	0.008
3116.000	-3.116	1.000	0.000	0.252	0.008
3117.000	-3.117	1.000	0.000	0.222	0.008
3118.000	-3.118	1.000	0.000	0.200	0.008
3119.000	-3.119	1.000	0.000	0.133	0.008
3120.000	-3.120	1.000	0.000	0.173	0.008
3121.000	-3.121	1.000	0.000	0.054	0.008
3122.000	-3.122	1.000	0.000	0.200	0.008
3123.000	-3.123	1.000	0.000	0.144	0.008
3124.000	-3.124	1.000	0.000	0.129	0.008
3125.000	-3.125	1.000	0.000	0.177	0.008
3126.000	-3.126	1.000	0.000	0.156	0.008
3127.000	-3.127	1.000	0.000	0.062	0.008
3128.000	-3.128	1.000	0.000	0.144	0.008
3129.000	-3.129	1.000	0.000	0.111	0.008
3130.000	-3.130	1.000	0.000	0.069	0.008
3131.000	-3.131	1.000	0.000	0.123	0.008
3132.000	-3.132	1.000	0.000	0.057	0.008
3133.000	-3.133	1.000	0.000	0.065	0.008
3134.000	-3.134	1.000	0.000	0.068	0.008
3135.000	-3.135	1.000	0.000	0.030	0.008
3136.000	-3.136	1.000	0.000	0.043	0.008
3137.000	-3.137	1.000	0.000	0.075	0.008
3138.000	-3.138	1.000	0.000	0.042	0.008
3139.000	-3.139	1.000	0.000	0.070	0.008
3140.000	-3.140	1.000	0.000	0.076	0.008
3141.000	-3.141	1.000	0.000	0.056	0.008
3142.000	-3.142	1.000	0.000	0.034	0.008
3143.000	-3.143	1.000	0.000	0.081	0.008
3144.000	-3.144	1.000	0.000	0.078	0.008
3145.000	-3.145	1.000	0.000	0.069	0.008
3146.000	-3.146	1.000	0.000	0.132	0.008
3147.000	-3.147	1.000	0.000	0.134	0.008
3148.000	-3.148	1.000	0.000	0.263	0.008
3149.000	-3.149	1.000	0.000	0.191	0.008
3150.000	-3.150	1.000	0.000	0.216	0.008
3151.000	-3.151	1.000	0.000	0.200	0.008
3152.000	-3.152	1.000	0.000	0.275	0.008
3153.000	-3.153	1.000	0.000	0.259	0.008
3154.000	-3.154	1.000	0.000	0.111	0.008
3155.000	-3.155	1.000	0.000	0.132	0.008
3156.000	-3.156	1.000	0.000	0.218	0.008
3157.000	-3.157	1.000	0.000	0.217	0.008
3158.000	-3.158	1.000	0.000	0.214	0.008
3159.000	-3.159	1.000	0.000	0.159	0.008
3160.000	-3.160	1.000	0.000	0.152	0.008
3161.000	-3.161	1.000	0.000	0.127	0.008
3162.000	-3.162	1.000	0.000	0.083	0.008
3163.000	-3.163	1.000	0.000	0.088	0.008
3164.000	-3.164	1.000	0.000	0.088	0.008
3165.000	-3.165	1.000	0.000	0.064	0.008
3166.000	-3.166	1.000	0.000	0.086	0.008
3167.000	-3.167	1.000	0.000	0.045	0.008
3168.000	-3.168	1.000	0.000	0.080	0.008
3169.000	-3.169	1.000	0.000	0.046	0.008
3170.000	-3.170	1.000	0.000	0.062	0.008
3171.000	-3.171	1.000	0.000	0.093	0.008
3172.000	-3.172	1.000	0.000	0.042	0.008
3173.000	-3.173	1.000	0.000	0.048	0.008
3174.000	-3.174	1.000	0.000	0.060	0.008
3175.000	-3.175	1.000	0.000	0.057	0.008
3176.000	-3.176	1.000	0.000	0.039	0.008
3177.000	-3.177	1.000	0.000	0.055	0.008
3178.000	-3.178	1.000	0.000	0.051	0.008
3179.000	-3.179	1.000	0.000	0.047	0.008
3180.000	-3.180	1.000	0.000	0.053	0.008
3181.000	-3.181	1.000	0.000	0.082	0.008
3182.000	-3.182	1.000	0.000	0.077	0.008
3183.000	-3.183	1.000	0.000	0.042	0.008
3184.000	-3.184	1.000	0.000	0.113	0.008
3185.000	-3.185	1.000	0.000	0.093	0.008
3186.000	-3.186	1.000	0.000	0.064	0.008
3187.000	-3.187	1.000	0.000	0.132	0.008
3188.000	-3.188	1.000	0.000	0.064	0.008
3189.000	-3.189	1.000	0.000	0.069	0.008
3190.000	-3.190	1.000	0.000	0.085	0.008
3191.000	-3.191	1.000	0.000	0.111	0.008
3192.000	-3.192	1.000	0.000	0.172	0.008
3193.000	-3.193	1.000	0.000	0.252	0.008
3194.000	-3.194	1.000	0.000	0.327	0.008
3195.000	-3.195	1.000	0.000	0.164	0.008
3196.000	-3.196	1.000	0.000	0.244	0.008
3197.000	-3.197	1.000	0.000	0.280	0.008
3198.000	-3.198	1.000	0.000	0.331	0.008
3199.000	-3.199	1.000	0.000	0.159	0.008
3200.000	-3.200	1.000	0.000	0.135	0.008
3201.000	-3.201	1.000	0.000	0.201	0.008
3202.000	-3.202	1.000	0.000	0.169	0.008
3203.000	-3.203	1.000	0.000	0.230	0.008
3204.000	-3.204	1.000	0.000	0.215	0.008
3205.000	-3.205	1.000	0.000	0.219	0.008
3206.000	-3.206	1.000	0.000	0.192	0.008
3207.000	-3.207	1.000	0.000	0.260	0.008
3208.000	-3.208	1.000	0.000	0.274	0.008
3209.000	-3.209	1.000	0.000	0.323	0.008
3210.000	-3.210	1.000	0.000	0.394	0.008
3211.000	-3.211	1.000	0.000	0.238	0.008
3212.000	-3.212	1.000	0.000	0.313	0.008
3213.000	-3.213	1.000	0.000	0.228	0.008
3214.000	-3.214	1.000	0.000	0.223	0.008
3215.000	-3.215	1.000	0.000	0.193	0.008
3216.000	-3.216	1.000	0.000	0.116	0.008
3217.000	-3.217	1.000	0.000	0.083	0.008
3218.000	-3.218	1.000	0.000	0.109	0.008
3219.000	-3.219	1.000	0.000	0.092	0.008
3220.000	-3.220	1.000	0.000	0.056	0.008
3221.000	-3.221	1.000	0.000	0.040	0.008
3222.000	-3.222	1.000	0.000	0.069	0.008
3223.000	-3.223	1.000	0.000	0.062	0.008
3224.000	-3.224	1.000	0.000	0.068	0.008
3225.000	-3.225	1.000	0.000	0.044	0.008
3226.000	-3.226	1.000	0.000	0.065	0.008
3227.000	-3.227	1.000	0.000	0.082	0.008
3228.000	-3.228	1.000	0.000	0.076	0.008
3229.000	-3.229	1.000	0.000	0.089	0.008
3230.000	-3.230	1.000	0.000	0.081	0.008
3231.000	-3.231	1.000	0.000	0.088	0.008
3232.000	-3.232	1.000	0.000	0.037	0.008
3233.000	-3.233	1.000	0.000	0.059	0.008
3234.000	-3.234	1.000	0.000	0.075	0.008
3235.000	-3.235	1.000	0.000	0.076	0.008
3236.000	-3.236	1.000	0.000	0.079	0.008
3237.000	-3.237	1.000	0.000	0.051	0.008
3238.000	-3.238	1.000	0.000	0.045	0.008
3239.000	-3.239	1.000	0.000	0.114	0.008
3240.000	-3.240	1.000	0.000	0.112	0.008
3241.000	-3.241	1.000	0.000	0.179	0.008
3242.000	-3.242	1.000	0.000	0.191	0.008
3243.000	-3.243	1.000	0.000	0.183	0.008
3244.000	-3.244	1.000	0.000	0.148	0.008
3245.000	-3.245	1.000	0.000	0.214	0.008
3246.000	-3.246	1.000	0.000	0.115	0.008
3247.000	-3.247	1.000	0.000	0.114	0.008
3248.000	-3.248	1.000	0.000	0.190	0.008
3249.000	-3.249	1.000	0.000	0.176	0.008
3250.000	-3.250	1.000	0.000	0.162	0.008
3251.000	-3.251	1.000	0.000	0.170	0.008
3252.000	-3.252	1.000	0.000	0.181	0.008
3253.000	-3.253	1.000	0.000	0.117	0.008
3254.000	-3.254	1.000	0.000	0.167	0.008
3255.000	-3.255	1.000	0.000	0.116	0.008
3256.000	-3.256	1.000	0.000	0.134	0.008
3257.000	-3.257	1.000	0.000	0.109	0.008
3258.000	-3.258	1.000	0.000	0.091	0.008
3259.000	-3.259	1.000	0.000	0.039	0.008
3260.000	-3.260	1.000	0.000	0.084	0.008
3261.000	-3.261	1.000	0.000	0.067	0.008
3262.000	-3.262	1.000	0.000	0.065	0.008
3263.000	-3.263	1.000	0.000	0.033	0.008
3264.000	-3.264	1.000	0.000	0.078	0.008
3265.000	-3.265	1.000	0.000	0.041	0.008
3266.000	-3.266	1.000	0.000	0.038	0.008
3267.000	-3.267	1.000	0.000	0.102	0.008
3268.000	-3.268	1.000	0.000	0.044	0.008
3269.000	-3.269	1.000	0.000	0.028	0.008
3270.000	-3.270	1.000	0.000	0.042	0.008
3271.000	-3.271	1.000	0.000	0.060	0.008
3272.000	-3.272	1.000	0.000	0.037	0.008
3273.000	-3.273	1.000	0.000	0.021	0.008
3274.000	-3.274	1.000	0.000	0.026	0.008
3275.000	-3.275	1.000	0.000	0.047	0.008
3276.000	-3.276	1.000	0.000	0.009	0.008
3277.000	-3.277	1.000	0.000	0.032	0.008
3278.000	-3.278	1.000	0.000	-0.003	0.008
3279.000	-3.279	1.000	0.000	0.022	0.008
3280.000	-3.280	1.000	0.000	0.051	0.008
3281.000	-3.281	1.000	0.000	0.044	0.008
3282.000	-3.282	1.000	0.000	-0.002	0.008
3283.000	-3.283	1.000	0.000	0.033	0.008
3284.000	-3.284	1.000	0.000	0.021	0.008
3285.000	-3.285	1.000	0.000	0.019	0.008
3286.000	-3.286	1.000	0.000	-0.006	0.008
3287.000	-3.287	1.000	0.000	0.030	0.008
3288.000	-3.288	1.000	0.000	0.027	0.008
3289.000	-3.289	1.000	0.000	0.036	0.008
3290.000	-3.290	1.000	0.000	0.022	0.008
3291.000	-3.291	1.000	0.000	0.017	0.008
3292.000	-3.292	1.000	0.000	0.017	0.008
3293.000	-3.293	1.000	0.000	0.029	0.008
3294.000	-3.294	1.000	0.000	0.023	0.008
3295.000	-3.295	1.000	0.000	0.022	0.008
3296.000	-3.296	1.000	0.000	0.046	0.008
3297.000	-3.297	1.000	0.000	-0.001	0.008
3298.000	-3.298	1.000	0.000	0.016	0.008
3299.000	-3.299	1.000	0.000	0.044	0.008
3300.000	-3.300	1.000	0.000	0.040	0.008
3301.000	-3.301	1.000	0.000	0.057	0.008
3302.000	-3.302	1.000	0.000	0.014	0.008
3303.000	-3.303	1.000	0.000	0.027	0.008
3304.000	-3.304	1.000	0.000	0.024	0.008
3305.000	-3.305	1.000	0.000	0.077	0.008
3306.000	-3.306	1.000	0.000	0.053	0.008
3307.000	-3.307	1.000	0.000	0.037	0.008
3308.000	-3.308	1.000	0.000	0.052	0.008
3309.000	-3.309	1.000	0.000	0.044	0.008
3310.000	-3.310	1.000	0.000	0.068	0.008
3311.000	-3.311	1.000	0.000	0.003	0.008
3312.000	-3.312	1.000	0.000	0.041	0.008
3313.000	-3.313	1.000	0.000	0.020	0.008
3314.000	-3.314	1.000	0.000	0.066	0.008
3315.000	-3.315	1.000	0.000	0.009	0.008
3316.000	-3.316	1.000	0.000	0.022	0.008
3317.000	-3.317	1.000	0.000	0.023	0.008
3318.000	-3.318	1.000	0.000	0.016	0.008
3319.000	-3.319	1.000	0.000	0.051	0.008
3320.000	-3.320	1.000	0.000	0.021	0.008
3321.000	-3.321	1.000	0.000	0.051	0.008
3322.000	-3.322	1.000	0.000	0.020	0.008
3323.000	-3.323	1.000	0.000	0.044	0.008
3324.000	-3.324	1.000	0.000	0.009	0.008
3325.000	-3.325	1.000	0.000	0.052	0.008
3326.000	-3.326	1.000	0.000	0.072	0.008
3327.000	-3.327	1.000	0.000	0.045	0.008
3328.000	-3.328	1.000	0.000	0.097	0.008
3329.000	-3.329	1.000	0.000	0.048	0.008
3330.000	-3.330	1.000	0.000	0.059	0.008
3331.000	-3.331	1.000	0.000	0.072	0.008
3332.000	-3.332	1.000	0.000	0.175	0.008
3333.000	-3.333	1.000	0.000	0.140	0.008
3334.000	-3.334	1.000	0.000	0.083	0.008
3335.000	-3.335	1.000	0.000	0.212	0.008
3336.000	-3.336	1.000	0.000	0.244	0.008
3337.000	-3.337	1.000	0.000	0.141	0.008
3338.000	-3.338	1.000	0.000	0.116	0.008
3339.000	-3.339	1.000	0.000	0.100	0.008
3340.000	-3.340	1.000	0.000	0.095	0.008
3341.000	-3.341	1.000	0.000	0.092	0.008
3342.000	-3.342	1.000	0.000	0.099	0.008
3343.000	-3.343	1.000	0.000	0.067	0.008
3344.000	-3.344	1.000	0.000	0.063	0.008
3345.000	-3.345	1.000	0.000	0.150	0.008
3346.000	-3.346	1.000	0.000	0.120	0.008
3347.000	-3.347	1.000	0.000	0.199	0.008
3348.000	-3.348	1.000	0.000	0.112	0.008
3349.000	-3.349	1.000	0.000	0.160	0.008
3350.000	-3.350	1.000	0.000	0.185	0.008
3351.000	-3.351	1.000	0.000	0.093	0.008
3352.000	-3.352	1.000	0.000	0.158	0.008
3353.000	-3.353	1.000	0.000	0.118	0.008
3354.000	-3.354	1.000	0.000	0.118	0.008
3355.000	-3.355	1.000	0.000	0.053	0.008
3356.000	-3.356	1.000	0.000	0.077	0.008
3357.000	-3.357	1.000	0.000	0.026	0.008
3358.000	-3.358	1.000	0.000	0.039	0.008
3359.000	-3.359	1.000	0.000	0.024	0.008
3360.000	-3.360	1.000	0.000	0.055	0.008
3361.000	-3.361	1.000	0.000	0.037	0.008
3362.000	-3.362	1.000	0.000	0.053	0.008
3363.000	-3.363	1.000	0.000	0.034	0.008
3364.000	-3.364	1.000	0.000	0.049	0.008
3365.000	-3.365	1.000	0.000	0.052	0.008
3366.000	-3.366	1.000	0.000	-0.007	0.008
3367.000	-3.367	1.000	0.000	-0.004	0.008
3368.000	-3.368	1.000	0.000	0.034	0.008
3369.000	-3.369	1.000	0.000	0.032	0.008
3370.000	-3.370	1.000	0.000	0.034	0.008
3371.000	-3.371	1.000	0.000	0.012	0.008
3372.000	-3.372	1.000	0.000	0.040	0.008
3373.000	-3.373	1.000	0.000	0.008	0.008
3374.000	-3.374	1.000	0.000	0.015	0.008
3375.000	-3.375	1.000	0.000	0.054	0.008
3376.000	-3.376	1.000	0.000	0.032	0.008
3377.000	-3.377	1.000	0.000	0.007	0.008
3378.000	-3.378	1.000	0.000	0.059	0.008
3379.000	-3.379	1.000	0.000	0.018	0.008
3380.000	-3.380	1.000	0.000	0.015	0.008
3381.000	-3.381	1.000	0.000	0.017	0.008
3382.000	-3.382	1.000	0.000	-0.026	0.008
3383.000	-3.383	1.000	0.000	0.020	0.008
3384.000	-3.384	1.000	0.000	0.027	0.008
3385.000	-3.385	1.000	0.000	0.019	0.008
3386.000	-3.386	1.000	0.000	0.022	0.008
3387.000	-3.387	1.000	0.000	-0.019	0.008
3388.000	-3.388	1.000	0.000	0.006	0.008
3389.000	-3.389	1.000	0.000	0.030	0.008
3390.000	-3.390	1.000	0.000	0.007	0.008
3391.000	-3.391	1.000	0.000	0.047	0.008
3392.000	-3.392	1.000	0.000	0.072	0.008
3393.000	-3.393	1.000	0.000	0.042	0.008
3394.000	-3.394	1.000	0.000	0.026	0.008
3395.000	-3.395	1.000	0.000	0.033	0.008
3396.000	-3.396	1.000	0.000	0.020	0.008
3397.000	-3.397	1.000	0.000	0.034	0.008
3398.000	-3.398	1.000	0.000	0.023	0.008
3399.000	-3.399	1.000	0.000	0.025	0.008
3400.000	-3.400	1.000	0.000	0.005	0.008
3401.000	-3.401	1.000	0.000	0.027	0.008
3402.000	-3.402	1.000	0.000	0.051	0.008
3403.000	-3.403	1.000	0.000	-0.007	0.008
3404.000	-3.404	1.000	0.000	0.008	0.008
3405.000	-3.405	1.000	0.000	-0.005	0.008
3406.000	-3.406	1.000	0.000	0.023	0.008
3407.000	-3.407	1.000	0.000	-0.005	0.008
3408.000	-3.408	1.000	0.000	0.010	0.008
3409.000	-3.409	1.000	0.000	0.008	0.008
3410.000	-3.410	1.000	0.000	0.003	0.008
3411.000	-3.411	1.000	0.000	0.018	0.008
3412.000	-3.412	1.000	0.000	0.021	0.008
3413.000	-3.413	1.000	0.000	0.014	0.008
3414.000	-3.414	1.000	0.000	0.025	0.008
3415.000	-3.415	1.000	0.000	0.026	0.008
3416.000	-3.416	1.000	0.000	0.019	0.008
3417.000	-3.417	1.000	0.000	0.036	0.008
3418.000	-3.418	1.000	0.000	-0.009	0.008
3419.000	-3.419	1.000	0.000	-0.014	0.008
3420.000	-3.420	1.000	0.000	0.003	0.008
3421.000	-3.421	1.000	0.000	0.020	0.008
3422.000	-3.422	1.000	0.000	0.015	0.008
3423.000	-3.423	1.000	0.000	0.026	0.008
3424.000	-3.424	1.000	0.000	0.037	0.008
3425.000	-3.425	1.000	0.000	0.025	0.008
3426.000	-3.426	1.000	0.000	0.009	0.008
3427.000	-3.427	1.000	0.000	0.030	0.008
3428.000	-3.428	1.000	0.000	0.013	0.008
3429.000	-3.429	1.000	0.000	-0.011	0.008
3430.000	-3.430	1.000	0.000	0.028	0.008
3431.000	-3.431	1.000	0.000	0.040	0.008
3432.000	-3.432	1.000	0.000	0.027	0.008
3433.000	-3.433	1.000	0.000	0.037	0.008
3434.000	-3.434	1.000	0.000	0.016	0.008
3435.000	-3.435	1.000	0.000	0.026	0.008
3436.000	-3.436	1.000	0.000	0.009	0.008
3437.000	-3.437	1.000	0.000	0.012	0.008
3438.000	-3.438	1.000	0.000	0.049	0.008
3439.000	-3.439	1.000	0.000	0.048	0.008
3440.000	-3.440	1.000	0.000	0.027	0.008
3441.000	-3.441	1.000	0.000	0.026	0.008
3442.000	-3.442	1.000	0.000	0.033	0.008
3443.000	-3.443	1.000	0.000	0.015	0.008
3444.000	-3.444	1.000	0.000	0.038	0.008
3445.000	-3.445	1.000	0.000	0.010	0.008
3446.000	-3.446	1.000	0.000	0.029	0.008
3447.000	-3.447	1.000	0.000	0.047	0.008
3448.000	-3.448	1.000	0.000	0.031	0.008
3449.000	-3.449	1.000	0.000	0.006	0.008
3450.000	-3.450	1.000	0.000	0.028	0.008
3451.000	-3.451	1.000	0.000	0.021	0.008
3452.000	-3.452	1.000	0.000	-0.014	0.008
3453.000	-3.453	1.000	0.000	-0.000	0.008
3454.000	-3.454	1.000	0.000	-0.017	0.008
3455.000	-3.455	1.000	0.000	0.012	0.008
3456.000	-3.456	1.000	0.000	0.034	0.008
3457.000	-3.457	1.000	0.000	0.015	0.008
3458.000	-3.458	1.000	0.000	0.029	0.008
3459.000	-3.459	1.000	0.000	0.008	0.008
3460.000	-3.460	1.000	0.000	-0.006	0.008
3461.000	-3.461	1.000	0.000	0.041	0.008
3462.000	-3.462	1.000	0.000	0.027	0.008
3463.000	-3.463	1.000	0.000	0.034	0.008
3464.000	-3.464	1.000	0.000	0.031	0.008
3465.000	-3.465	1.000	0.000	0.012	0.008
3466.000	-3.466	1.000	0.000	0.031	0.008
3467.000	-3.467	1.000	0.000	0.019	0.008
3468.000	-3.468	1.000	0.000	0.021	0.008
3469.000	-3.469	1.000	0.000	0.032	0.008
3470.000	-3.470	1.000	0.000	-0.000	0.008
3471.000	-3.471	1.000	0.000	0.016	0.008
3472.000	-3.472	1.000	0.000	0.006	0.008
3473.000	-3.473	1.000	0.000	0.044	0.008
3474.000	-3.474	1.000	0.000	0.014	0.008
3475.000	-3.475	1.000	0.000	0.060	0.008
3476.000	-3.476	1.000	0.000	0.040	0.008
3477.000	-3.477	1.000	0.000	0.024	0.008
3478.000	-3.478	1.000	0.000	0.004	0.008
3479.000	-3.479	1.000	0.000	0.022	0.008
3480.000	-3.480	1.000	0.000	0.008	0.008
3481.000	-3.481	1.000	0.000	0.024	0.008
3482.000	-3.482	1.000	0.000	0.028	0.008
3483.000	-3.483	1.000	0.000	0.032	0.008
3484.000	-3.484	1.000	0.000	0.042	0.008
3485.000	-3.485	1.000	0.000	0.044	0.008
3486.000	-3.486	1.000	0.000	0.068	0.008
3487.000	-3.487	1.000	0.000	0.040	0.008
3488.000	-3.488	1.000	0.000	0.035	0.008
3489.000	-3.489	1.000	0.000	0.009	0.008
3490.000	-3.490	1.000	0.000	0.027	0.008
3491.000	-3.491	1.000	0.000	0.018	0.008
3492.000	-3.492	1.000	0.000	0.028	0.008
3493.000	-3.493	1.000	0.000	0.027	0.008
3494.000	-3.494	1.000	0.000	0.066	0.008
3495.000	-3.495	1.000	0.000	0.016	0.008
3496.000	-3.496	1.000	0.000	0.018	0.008
3497.000	-3.497	1.000	0.000	0.007	0.008
3498.000	-3.498	1.000	0.000	0.009	0.008
3499.000	-3.499	1.000	0.000	0.012	0.008
3500.000	-3.500	1.000	0.000	0.003	0.005
